Source File Name:	Analyzer
Signal:	FFT - Vib Velocity - Magnitude

Frequency	Magnitude
[ Hz ]	[ m/s ]
20	0.002388535
20.625	0.00197716
21.25	0.001434546
21.875	0.001144736
22.5	0.001000653
23.125	0.0008935855
23.75	0.0008483987
24.375	0.000759606
25	0.0007275625
25.625	0.000678066
26.25	0.0006276148
26.875	0.00059112
27.5	0.0005543165
28.125	0.0005266046
28.75	0.0005073385
29.375	0.0004821604
30	0.0004740531
30.625	0.0004613413
31.25	0.0004558666
31.875	0.0004532119
32.5	0.000452159
33.125	0.0004530711
33.75	0.0004443981
34.375	0.000441083
35	0.000431594
35.625	0.0004256319
36.25	0.0004111849
36.875	0.0003939322
37.5	0.0003805368
38.125	0.0003511002
38.75	0.0003314739
39.375	0.000306472
40	0.0002904343
40.625	0.000283259
41.25	0.0002774194
41.875	0.0002761006
42.5	0.0002697462
43.125	0.000265161
43.75	0.0002551306
44.375	0.0002460508
45	0.0002404399
45.625	0.0002265347
46.25	0.0002118198
46.875	0.0001997045
47.5	0.0001923777
48.125	0.0001850331
48.75	0.0001826666
49.375	0.0001831542
50	0.0001792384
50.625	0.0001743538
51.25	0.0001789185
51.875	0.0001797835
52.5	0.0001781698
53.125	0.000165883
53.75	0.0001616512
54.375	0.0001461649
55	0.0001389299
55.625	0.0001284814
56.25	0.0001118311
56.875	0.0001135586
57.5	0.0001185419
58.125	0.0001089992
58.75	0.0001081997
59.375	0.0001123065
60	0.0001058185
60.625	0.0001093543
61.25	0.00011004
61.875	0.0001146799
62.5	9.990386e-5
63.125	9.79812e-5
63.75	8.850686e-5
64.375	8.216374e-5
65	6.994603e-5
65.625	6.128808e-5
66.25	5.497186e-5
66.875	5.385885e-5
67.5	5.375337e-5
68.125	5.15072e-5
68.75	6.006633e-5
69.375	6.0048e-5
70	5.940338e-5
70.625	5.942136e-5
71.25	5.657667e-5
71.875	5.556753e-5
72.5	4.658436e-5
73.125	3.839422e-5
73.75	3.467449e-5
74.375	2.557199e-5
75	1.826478e-5
75.625	1.86465e-5
76.25	1.735033e-5
76.875	2.108783e-5
77.5	2.438928e-5
78.125	2.847082e-5
78.75	3.106819e-5
79.375	3.068352e-5
80	2.697081e-5
80.625	2.695419e-5
81.25	2.367484e-5
81.875	2.080932e-5
82.5	1.624202e-5
83.125	1.147636e-5
83.75	1.387347e-5
84.375	8.813544e-6
85	1.566111e-5
85.625	7.562245e-6
86.25	9.957228e-6
86.875	6.28358e-6
87.5	3.045678e-6
88.125	1.076751e-6
88.75	8.892642e-6
89.375	1.235348e-5
90	1.8157e-5
90.625	2.86674e-5
91.25	3.32001e-5
91.875	4.260773e-5
92.5	4.299718e-5
93.125	4.42512e-5
93.75	4.938826e-5
94.375	4.643505e-5
95	4.856475e-5
95.625	4.629396e-5
96.25	4.261459e-5
96.875	4.482324e-5
97.5	4.125537e-5
98.125	4.446257e-5
98.75	5.744886e-5
99.375	6.409141e-5
100	7.058292e-5
100.625	8.089397e-5
101.25	8.527919e-5
101.875	9.512961e-5
102.5	9.735167e-5
103.125	0.000101329
103.75	0.0001051793
104.375	0.0001003078
105	9.837954e-5
105.625	9.779568e-5
106.25	9.91264e-5
106.875	0.0001009554
107.5	0.0001075235
108.125	0.0001095843
108.75	0.0001223516
109.375	0.0001286747
110	0.0001360381
110.625	0.0001508222
111.25	0.0001547204
111.875	0.0001605373
112.5	0.0001613519
113.125	0.0001622847
113.75	0.0001674617
114.375	0.0001636712
115	0.0001671817
115.625	0.0001706134
116.25	0.0001745683
116.875	0.0001788479
117.5	0.0001923846
118.125	0.0002037713
118.75	0.0002163045
119.375	0.000229249
120	0.0002358804
120.625	0.0002510136
121.25	0.0002553618
121.875	0.0002621367
122.5	0.0002694809
123.125	0.0002725543
123.75	0.0002771724
124.375	0.0002824311
125	0.0002900101
125.625	0.0003069511
126.25	0.0003196278
126.875	0.0003359233
127.5	0.0003595464
128.125	0.0003792036
128.75	0.0004015783
129.375	0.0004257335
130	0.0004475911
130.625	0.0004713057
131.25	0.0004884469
131.875	0.0005088764
132.5	0.0005325144
133.125	0.0005555899
133.75	0.0005803639
134.375	0.0006099472
135	0.0006410388
135.625	0.0006765745
136.25	0.0007176119
136.875	0.0007570245
137.5	0.0008109966
138.125	0.0008549605
138.75	0.0009036982
139.375	0.0009530642
140	0.0009997737
140.625	0.001049531
141.25	0.001087379
141.875	0.00112345
142.5	0.00115169
143.125	0.001159781
143.75	0.001158154
144.375	0.001137748
145	0.001110184
145.625	0.001071408
146.25	0.001032515
146.875	0.0009964159
147.5	0.0009741676
148.125	0.0009534635
148.75	0.0009385073
149.375	0.0009265776
150	0.0009053515
150.625	0.000884598
151.25	0.0008489952
151.875	0.0008128291
152.5	0.0007812105
153.125	0.0007400305
153.75	0.0007085672
154.375	0.0006714597
155	0.0006412965
155.625	0.0006133551
156.25	0.0005850743
156.875	0.0005690843
157.5	0.000555209
158.125	0.0005429688
158.75	0.0005282903
159.375	0.0005193782
160	0.0005048579
160.625	0.0004961829
161.25	0.0004816815
161.875	0.0004664633
162.5	0.0004532879
163.125	0.0004294298
163.75	0.0004102876
164.375	0.0003942751
165	0.0003779385
165.625	0.0003688918
166.25	0.0003540379
166.875	0.0003462911
167.5	0.0003399911
168.125	0.0003322903
168.75	0.0003278959
169.375	0.0003283663
170	0.0003183247
170.625	0.0003099507
171.25	0.0002971539
171.875	0.0002849444
172.5	0.0002776911
173.125	0.0002615701
173.75	0.000253327
174.375	0.0002431145
175	0.0002334145
175.625	0.0002262005
176.25	0.0002264569
176.875	0.0002252106
177.5	0.0002275727
178.125	0.0002232423
178.75	0.0002177347
179.375	0.0002178285
180	0.0002076496
180.625	0.0002004266
181.25	0.0001941567
181.875	0.0001773407
182.5	0.0001666296
183.125	0.0001457802
183.75	0.0001350209
184.375	0.0001243989
185	0.0001108909
185.625	0.0001003119
186.25	9.31319e-5
186.875	8.409428e-5
187.5	7.8816e-5
188.125	7.898347e-5
188.75	7.197676e-5
189.375	7.114376e-5
190	6.12074e-5
190.625	5.996676e-5
191.25	6.242297e-5
191.875	6.966897e-5
192.5	7.370408e-5
193.125	8.898259e-5
193.75	9.94506e-5
194.375	0.0001086146
195	0.0001274344
195.625	0.0001351178
196.25	0.0001459936
196.875	0.0001513374
197.5	0.0001594377
198.125	0.0001705
198.75	0.0001838325
199.375	0.0001956607
200	0.0002185159
200.625	0.0002382795
201.25	0.0002627683
201.875	0.0002934469
202.5	0.0003229915
203.125	0.0003557972
203.75	0.0003830116
204.375	0.0004036493
205	0.0004279494
205.625	0.0004393237
206.25	0.0004481801
206.875	0.0004481142
207.5	0.000443868
208.125	0.0004331784
208.75	0.0004164375
209.375	0.0003971832
210	0.0003844424
210.625	0.0003696253
211.25	0.0003546702
211.875	0.0003474819
212.5	0.0003371936
213.125	0.0003359761
213.75	0.0003318493
214.375	0.000329391
215	0.0003333719
215.625	0.0003276681
216.25	0.0003247748
216.875	0.0003203537
217.5	0.000316315
218.125	0.0003161327
218.75	0.0003087717
219.375	0.0003089406
220	0.000305345
220.625	0.0003076958
221.25	0.0003038344
221.875	0.0003120922
222.5	0.0003140737
223.125	0.0003158883
223.75	0.000317047
224.375	0.00031269
225	0.0003151989
225.625	0.0003084701
226.25	0.0003023454
226.875	0.0002983079
227.5	0.0002859003
228.125	0.0002793423
228.75	0.0002689387
229.375	0.0002640708
230	0.0002645249
230.625	0.0002607868
231.25	0.0002602474
231.875	0.0002624193
232.5	0.0002639086
233.125	0.0002646257
233.75	0.0002680548
234.375	0.0002660483
235	0.0002668718
235.625	0.0002568849
236.25	0.0002518701
236.875	0.0002475854
237.5	0.0002435959
238.125	0.0002358565
238.75	0.0002365192
239.375	0.0002318922
240	0.0002333806
240.625	0.0002371481
241.25	0.0002382417
241.875	0.0002503428
242.5	0.000249692
243.125	0.0002508766
243.75	0.0002555482
244.375	0.0002505821
245	0.0002549181
245.625	0.0002475884
246.25	0.000245011
246.875	0.0002426284
247.5	0.0002341627
248.125	0.0002315086
248.75	0.0002303773
249.375	0.0002343825
250	0.0002310615
250.625	0.0002371476
251.25	0.0002331188
251.875	0.0002389019
252.5	0.0002368747
253.125	0.0002324541
253.75	0.0002359465
254.375	0.000224957
255	0.0002181699
255.625	0.0002094699
256.25	0.0001940101
256.875	0.0001929254
257.5	0.0001752731
258.125	0.0001686739
258.75	0.000159803
259.375	0.0001524591
260	0.0001457895
260.625	0.000142773
261.25	0.0001385562
261.875	0.0001373457
262.5	0.0001318833
263.125	0.0001228321
263.75	0.0001223877
264.375	0.0001131876
265	0.0001048024
265.625	9.915522e-5
266.25	8.409361e-5
266.875	8.023639e-5
267.5	6.444288e-5
268.125	5.458223e-5
268.75	5.143847e-5
269.375	3.984469e-5
270	3.902046e-5
270.625	3.078815e-5
271.25	2.907133e-5
271.875	3.09863e-5
272.5	3.108224e-5
273.125	3.247354e-5
273.75	3.822704e-5
274.375	4.162261e-5
275	4.526628e-5
275.625	4.898959e-5
276.25	5.170707e-5
276.875	6.132996e-5
277.5	6.512611e-5
278.125	6.833904e-5
278.75	7.448276e-5
279.375	7.159629e-5
280	7.896648e-5
280.625	7.280151e-5
281.25	7.721123e-5
281.875	8.246776e-5
282.5	8.179132e-5
283.125	8.907523e-5
283.75	8.707838e-5
284.375	9.350062e-5
285	0.0001019168
285.625	0.0001039855
286.25	0.0001144745
286.875	0.0001156715
287.5	0.0001222186
288.125	0.0001172825
288.75	0.0001204396
289.375	0.0001169868
290	0.0001196338
290.625	0.0001138945
291.25	0.0001081704
291.875	0.0001058415
292.5	9.838757e-5
293.125	9.712567e-5
293.75	9.885168e-5
294.375	9.99145e-5
295	0.0001068587
295.625	0.0001029668
296.25	0.0001084044
296.875	0.0001101449
297.5	0.0001147541
298.125	0.0001151746
298.75	0.0001142792
299.375	0.0001129767
300	0.0001064623
300.625	0.0001013612
301.25	9.603101e-5
301.875	9.722899e-5
302.5	9.349053e-5
303.125	9.13596e-5
303.75	8.945935e-5
304.375	9.37294e-5
305	9.457667e-5
305.625	0.0001012938
306.25	0.0001045495
306.875	0.0001089678
307.5	0.0001070273
308.125	0.000105553
308.75	0.0001034805
309.375	0.0001045353
310	9.937357e-5
310.625	9.613774e-5
311.25	8.908399e-5
311.875	8.657896e-5
312.5	7.947315e-5
313.125	8.154009e-5
313.75	8.021586e-5
314.375	8.718698e-5
315	8.508861e-5
315.625	8.500583e-5
316.25	9.044274e-5
316.875	8.817865e-5
317.5	9.246766e-5
318.125	8.939001e-5
318.75	8.799511e-5
319.375	8.481796e-5
320	7.512677e-5
320.625	7.089568e-5
321.25	6.612237e-5
321.875	6.332541e-5
322.5	5.828644e-5
323.125	5.438357e-5
323.75	5.210389e-5
324.375	5.135097e-5
325	5.514518e-5
325.625	5.101537e-5
326.25	6.069579e-5
326.875	5.423214e-5
327.5	5.505832e-5
328.125	5.085929e-5
328.75	4.76973e-5
329.375	4.827344e-5
330	3.97694e-5
330.625	3.461048e-5
331.25	3.012917e-5
331.875	2.008748e-5
332.5	1.670613e-5
333.125	7.958503e-6
333.75	8.883652e-6
334.375	6.780354e-6
335	9.859721e-6
335.625	9.333922e-6
336.25	1.474403e-5
336.875	1.467197e-5
337.5	1.223762e-5
338.125	1.478049e-5
338.75	8.962332e-6
339.375	1.086367e-5
340	5.197955e-6
340.625	4.422361e-6
341.25	7.089162e-6
341.875	9.505628e-6
342.5	1.541892e-5
343.125	1.701317e-5
343.75	1.936384e-5
344.375	2.021128e-5
345	2.176436e-5
345.625	2.073775e-5
346.25	1.710257e-5
346.875	1.472816e-5
347.5	1.445242e-5
348.125	1.107538e-5
348.75	1.016545e-5
349.375	2.893257e-6
350	4.816913e-6
350.625	8.58133e-6
351.25	1.224101e-5
351.875	1.513329e-5
352.5	1.986222e-5
353.125	1.82152e-5
353.75	1.997408e-5
354.375	1.789677e-5
355	2.096481e-5
355.625	1.888817e-5
356.25	1.790763e-5
356.875	1.278705e-5
357.5	1.152245e-5
358.125	7.56004e-6
358.75	2.387197e-6
359.375	5.099867e-6
360	6.20339e-6
360.625	7.460085e-6
361.25	1.203279e-5
361.875	1.502894e-5
362.5	1.726046e-5
363.125	1.929362e-5
363.75	1.589037e-5
364.375	1.865289e-5
365	1.383484e-5
365.625	1.136023e-5
366.25	6.677664e-6
366.875	4.196156e-6
367.5	5.182625e-6
368.125	3.161551e-6
368.75	8.008218e-6
369.375	1.249219e-5
370	1.733055e-5
370.625	1.897456e-5
371.25	2.399453e-5
371.875	2.619538e-5
372.5	2.273681e-5
373.125	2.514518e-5
373.75	2.068331e-5
374.375	2.446305e-5
375	2.010914e-5
375.625	1.644318e-5
376.25	1.434929e-5
376.875	9.838525e-6
377.5	1.188175e-5
378.125	1.203864e-5
378.75	2.046906e-5
379.375	2.129168e-5
380	2.64994e-5
380.625	2.64156e-5
381.25	3.246201e-5
381.875	3.483041e-5
382.5	3.43849e-5
383.125	3.462349e-5
383.75	3.435982e-5
384.375	3.103196e-5
385	3.012834e-5
385.625	2.257517e-5
386.25	2.559526e-5
386.875	2.084022e-5
387.5	2.220725e-5
388.125	2.018657e-5
388.75	2.751031e-5
389.375	2.843148e-5
390	3.475892e-5
390.625	3.592679e-5
391.25	3.945303e-5
391.875	4.245258e-5
392.5	4.040575e-5
393.125	4.092553e-5
393.75	4.146484e-5
394.375	3.844843e-5
395	3.593388e-5
395.625	2.930918e-5
396.25	2.850697e-5
396.875	2.572243e-5
397.5	2.486125e-5
398.125	2.526776e-5
398.75	2.996746e-5
399.375	3.157924e-5
400	3.31187e-5
400.625	4.027313e-5
401.25	3.947807e-5
401.875	4.657678e-5
402.5	4.04395e-5
403.125	4.3009e-5
403.75	3.948763e-5
404.375	3.731036e-5
405	3.353768e-5
405.625	3.054661e-5
406.25	2.845221e-5
406.875	2.486682e-5
407.5	2.20281e-5
408.125	2.395914e-5
408.75	2.877493e-5
409.375	3.236017e-5
410	3.197374e-5
410.625	3.865211e-5
411.25	3.557676e-5
411.875	3.849436e-5
412.5	3.681265e-5
413.125	3.691669e-5
413.75	3.730548e-5
414.375	2.984884e-5
415	2.72269e-5
415.625	2.065274e-5
416.25	2.071333e-5
416.875	1.773264e-5
417.5	2.074309e-5
418.125	2.037675e-5
418.75	2.51519e-5
419.375	2.408972e-5
420	2.947141e-5
420.625	3.230867e-5
421.25	3.484665e-5
421.875	3.167558e-5
422.5	2.990907e-5
423.125	2.589583e-5
423.75	2.423958e-5
424.375	1.815434e-5
425	1.713591e-5
425.625	1.36696e-5
426.25	1.277122e-5
426.875	8.495067e-6
427.5	1.750631e-5
428.125	1.950091e-5
428.75	2.478897e-5
429.375	2.556052e-5
430	2.465674e-5
430.625	2.886918e-5
431.25	2.160892e-5
431.875	2.59452e-5
432.5	2.01937e-5
433.125	2.195925e-5
433.75	1.517933e-5
434.375	9.069416e-6
435	1.108035e-5
435.625	1.353964e-5
436.25	1.596929e-5
436.875	2.071186e-5
437.5	2.346753e-5
438.125	2.474385e-5
438.75	2.599894e-5
439.375	2.975041e-5
440	2.924341e-5
440.625	3.088341e-5
441.25	2.403197e-5
441.875	2.182804e-5
442.5	1.911632e-5
443.125	1.44501e-5
443.75	1.454261e-5
444.375	1.642787e-5
445	1.474031e-5
445.625	1.867159e-5
446.25	2.137998e-5
446.875	2.381873e-5
447.5	3.284272e-5
448.125	2.58851e-5
448.75	3.187748e-5
449.375	2.627558e-5
450	2.718582e-5
450.625	2.307095e-5
451.25	1.988021e-5
451.875	1.918585e-5
452.5	1.429951e-5
453.125	1.205928e-5
453.75	9.343292e-6
454.375	1.684568e-5
455	1.920899e-5
455.625	1.962471e-5
456.25	2.694452e-5
456.875	2.244027e-5
457.5	2.830106e-5
458.125	2.464884e-5
458.75	2.375962e-5
459.375	2.753235e-5
460	1.656556e-5
460.625	1.739851e-5
461.25	1.255607e-5
461.875	1.178248e-5
462.5	1.379373e-5
463.125	1.77818e-5
463.75	1.898152e-5
464.375	2.549647e-5
465	2.460788e-5
465.625	3.154324e-5
466.25	3.253184e-5
466.875	3.444923e-5
467.5	2.963911e-5
468.125	3.059405e-5
468.75	2.745274e-5
469.375	2.431001e-5
470	2.746743e-5
470.625	1.948529e-5
471.25	2.695163e-5
471.875	2.532123e-5
472.5	2.423813e-5
473.125	3.744137e-5
473.75	3.546257e-5
474.375	4.246602e-5
475	4.240322e-5
475.625	4.128194e-5
476.25	4.653008e-5
476.875	3.959428e-5
477.5	4.404974e-5
478.125	3.892781e-5
478.75	4.081417e-5
479.375	3.127299e-5
480	3.333053e-5
480.625	3.267746e-5
481.25	3.315742e-5
481.875	4.066861e-5
482.5	3.743434e-5
483.125	4.421349e-5
483.75	4.601741e-5
484.375	4.33048e-5
485	5.205656e-5
485.625	4.790536e-5
486.25	5.133456e-5
486.875	4.607025e-5
487.5	4.057727e-5
488.125	4.210156e-5
488.75	3.598722e-5
489.375	3.525849e-5
490	3.527411e-5
490.625	3.456124e-5
491.25	3.413071e-5
491.875	3.537605e-5
492.5	3.982947e-5
493.125	4.335942e-5
493.75	4.501942e-5
494.375	4.56948e-5
495	4.303662e-5
495.625	4.697053e-5
496.25	3.746251e-5
496.875	4.209931e-5
497.5	3.526685e-5
498.125	3.39539e-5
498.75	3.237702e-5
499.375	2.233338e-5
500	3.051672e-5
500.625	2.864624e-5
501.25	2.963282e-5
501.875	3.576492e-5
502.5	3.328504e-5
503.125	3.982263e-5
503.75	3.410906e-5
504.375	3.95286e-5
505	3.773208e-5
505.625	3.603023e-5
506.25	3.380138e-5
506.875	2.54794e-5
507.5	3.057835e-5
508.125	1.973491e-5
508.75	2.442304e-5
509.375	2.299471e-5
510	2.327722e-5
510.625	2.794142e-5
511.25	2.703407e-5
511.875	3.179764e-5
512.5	3.55191e-5
513.125	3.268256e-5
513.75	3.506534e-5
514.375	3.091273e-5
515	3.324721e-5
515.625	2.652015e-5
516.25	2.52512e-5
516.875	2.351494e-5
517.5	2.019309e-5
518.125	2.045285e-5
518.75	1.923755e-5
519.375	2.261504e-5
520	2.730047e-5
520.625	2.421824e-5
521.25	3.229001e-5
521.875	3.003479e-5
522.5	3.193429e-5
523.125	3.230156e-5
523.75	2.704397e-5
524.375	3.203445e-5
525	2.209726e-5
525.625	2.314762e-5
526.25	1.676691e-5
526.875	1.863762e-5
527.5	1.672027e-5
528.125	1.35647e-5
528.75	2.147408e-5
529.375	1.808657e-5
530	2.481048e-5
530.625	2.415426e-5
531.25	2.461776e-5
531.875	2.955762e-5
532.5	1.965051e-5
533.125	2.575166e-5
533.75	1.896678e-5
534.375	1.848628e-5
535	1.5726e-5
535.625	8.375718e-6
536.25	1.049596e-5
536.875	8.970991e-6
537.5	1.034877e-5
538.125	1.446094e-5
538.75	1.801062e-5
539.375	1.761042e-5
540	1.796422e-5
540.625	1.937742e-5
541.25	2.0009e-5
541.875	1.751779e-5
542.5	1.777864e-5
543.125	9.659076e-6
543.75	1.3605e-5
544.375	9.344691e-6
545	5.721568e-6
545.625	1.938635e-5
546.25	1.287077e-5
546.875	1.939375e-5
547.5	2.285337e-5
548.125	2.349678e-5
548.75	2.827957e-5
549.375	2.663283e-5
550	2.752217e-5
550.625	2.721307e-5
551.25	2.453061e-5
551.875	2.015008e-5
552.5	2.178147e-5
553.125	2.238632e-5
553.75	1.853189e-5
554.375	2.558801e-5
555	2.274923e-5
555.625	2.89875e-5
556.25	3.347254e-5
556.875	3.125304e-5
557.5	4.066038e-5
558.125	3.795042e-5
558.75	3.63734e-5
559.375	3.935264e-5
560	3.452011e-5
560.625	3.648752e-5
561.25	3.443822e-5
561.875	2.838437e-5
562.5	3.193006e-5
563.125	2.74028e-5
563.75	2.800313e-5
564.375	3.22464e-5
565	3.563567e-5
565.625	3.540122e-5
566.25	4.028453e-5
566.875	3.860189e-5
567.5	4.216193e-5
568.125	4.52472e-5
568.75	3.787705e-5
569.375	4.274144e-5
570	3.890652e-5
570.625	3.182031e-5
571.25	3.667189e-5
571.875	2.6046e-5
572.5	3.26324e-5
573.125	3.094513e-5
573.75	2.711173e-5
574.375	3.450285e-5
575	3.421183e-5
575.625	3.608342e-5
576.25	3.921061e-5
576.875	4.167934e-5
577.5	3.772904e-5
578.125	4.122929e-5
578.75	3.414356e-5
579.375	3.482764e-5
580	3.719375e-5
580.625	2.578952e-5
581.25	3.055124e-5
581.875	2.795259e-5
582.5	2.375251e-5
583.125	3.238388e-5
583.75	3.040779e-5
584.375	3.59072e-5
585	3.794823e-5
585.625	3.509871e-5
586.25	3.86086e-5
586.875	4.185578e-5
587.5	3.668073e-5
588.125	3.911709e-5
588.75	3.577419e-5
589.375	3.073666e-5
590	3.275859e-5
590.625	2.684825e-5
591.25	2.83035e-5
591.875	3.373699e-5
592.5	2.959635e-5
593.125	3.169521e-5
593.75	3.95663e-5
594.375	3.48481e-5
595	4.301259e-5
595.625	4.127054e-5
596.25	4.07659e-5
596.875	4.424527e-5
597.5	3.475671e-5
598.125	3.591055e-5
598.75	3.642262e-5
599.375	3.073859e-5
600	3.212431e-5
600.625	2.845158e-5
601.25	2.833605e-5
601.875	2.958951e-5
602.5	3.428417e-5
603.125	3.143465e-5
603.75	4.028467e-5
604.375	3.68054e-5
605	3.509829e-5
605.625	4.058647e-5
606.25	3.212003e-5
606.875	3.863843e-5
607.5	3.151802e-5
608.125	2.795265e-5
608.75	2.929184e-5
609.375	2.041815e-5
610	2.111719e-5
610.625	2.309587e-5
611.25	2.332929e-5
611.875	2.253421e-5
612.5	2.509427e-5
613.125	2.581843e-5
613.75	2.571096e-5
614.375	3.015287e-5
615	2.354315e-5
615.625	2.961137e-5
616.25	2.27589e-5
616.875	1.847029e-5
617.5	1.823945e-5
618.125	1.297893e-5
618.75	1.331792e-5
619.375	1.347572e-5
620	9.453288e-6
620.625	1.400233e-5
621.25	1.704881e-5
621.875	1.556836e-5
622.5	2.302683e-5
623.125	2.116804e-5
623.75	2.057431e-5
624.375	1.771178e-5
625	1.957773e-5
625.625	1.431169e-5
626.25	1.519811e-5
626.875	1.438644e-5
627.5	9.089053e-6
628.125	1.670077e-5
628.75	1.47207e-5
629.375	1.828873e-5
630	2.634784e-5
630.625	2.22119e-5
631.25	2.796135e-5
631.875	2.716855e-5
632.5	2.795892e-5
633.125	2.823441e-5
633.75	2.583392e-5
634.375	2.513228e-5
635	2.470084e-5
635.625	2.258256e-5
636.25	1.777257e-5
636.875	2.498871e-5
637.5	2.420283e-5
638.125	2.506174e-5
638.75	3.048741e-5
639.375	3.001213e-5
640	3.335395e-5
640.625	3.716797e-5
641.25	3.149217e-5
641.875	3.928717e-5
642.5	3.31943e-5
643.125	3.252999e-5
643.75	3.26543e-5
644.375	2.696943e-5
645	2.888256e-5
645.625	2.637186e-5
646.25	2.581489e-5
646.875	2.974317e-5
647.5	2.992552e-5
648.125	3.073644e-5
648.75	3.396754e-5
649.375	3.89269e-5
650	3.367085e-5
650.625	3.953782e-5
651.25	3.610907e-5
651.875	3.472532e-5
652.5	3.787962e-5
653.125	2.550483e-5
653.75	3.463192e-5
654.375	2.780627e-5
655	2.564112e-5
655.625	3.064083e-5
656.25	2.854349e-5
656.875	3.20488e-5
657.5	3.517699e-5
658.125	3.469503e-5
658.75	3.869615e-5
659.375	4.057153e-5
660	3.741035e-5
660.625	3.813623e-5
661.25	4.098259e-5
661.875	3.331408e-5
662.5	3.684692e-5
663.125	3.32934e-5
663.75	3.108913e-5
664.375	3.609959e-5
665	3.0574e-5
665.625	3.539901e-5
666.25	4.152837e-5
666.875	3.645895e-5
667.5	4.386042e-5
668.125	4.526832e-5
668.75	4.248017e-5
669.375	4.914518e-5
670	4.132987e-5
670.625	4.530001e-5
671.25	4.354493e-5
671.875	3.967018e-5
672.5	3.867297e-5
673.125	4.00022e-5
673.75	3.785667e-5
674.375	3.857045e-5
675	4.281493e-5
675.625	3.960359e-5
676.25	4.761092e-5
676.875	4.53647e-5
677.5	4.452652e-5
678.125	5.3623e-5
678.75	4.393084e-5
679.375	4.914157e-5
680	4.68395e-5
680.625	4.215299e-5
681.25	4.51904e-5
681.875	3.736109e-5
682.5	3.962074e-5
683.125	3.836317e-5
683.75	3.840501e-5
684.375	3.601921e-5
685	4.160059e-5
685.625	4.027415e-5
686.25	4.199205e-5
686.875	4.396466e-5
687.5	4.09363e-5
688.125	4.513918e-5
688.75	4.163882e-5
689.375	3.674235e-5
690	4.114556e-5
690.625	3.31956e-5
691.25	3.282719e-5
691.875	3.136773e-5
692.5	2.766837e-5
693.125	3.038832e-5
693.75	2.892895e-5
694.375	2.788074e-5
695	3.297548e-5
695.625	3.185913e-5
696.25	3.190532e-5
696.875	3.427778e-5
697.5	3.188193e-5
698.125	3.178336e-5
698.75	2.850343e-5
699.375	2.778984e-5
700	2.358053e-5
700.625	2.602791e-5
701.25	1.780792e-5
701.875	2.256626e-5
702.5	2.350361e-5
703.125	1.97798e-5
703.75	2.676694e-5
704.375	2.639723e-5
705	2.884545e-5
705.625	2.914785e-5
706.25	2.755086e-5
706.875	2.91825e-5
707.5	2.773761e-5
708.125	2.581246e-5
708.75	2.427633e-5
709.375	2.445132e-5
710	2.086386e-5
710.625	2.136953e-5
711.25	2.441804e-5
711.875	2.457728e-5
712.5	2.929229e-5
713.125	2.846752e-5
713.75	3.00125e-5
714.375	3.374473e-5
715	3.202772e-5
715.625	3.093818e-5
716.25	3.501301e-5
716.875	2.892951e-5
717.5	2.994192e-5
718.125	2.692779e-5
718.75	2.449491e-5
719.375	2.863161e-5
720	2.470456e-5
720.625	2.757013e-5
721.25	2.930709e-5
721.875	3.09888e-5
722.5	2.995549e-5
723.125	3.547168e-5
723.75	3.410153e-5
724.375	3.430802e-5
725	3.55e-5
725.625	2.914547e-5
726.25	3.264223e-5
726.875	2.97003e-5
727.5	2.463729e-5
728.125	3.044859e-5
728.75	2.617747e-5
729.375	2.646478e-5
730	2.906779e-5
730.625	2.997766e-5
731.25	3.269055e-5
731.875	3.620828e-5
732.5	3.264517e-5
733.125	3.72571e-5
733.75	3.617917e-5
734.375	3.156935e-5
735	3.665939e-5
735.625	3.196186e-5
736.25	3.208777e-5
736.875	3.157714e-5
737.5	2.929977e-5
738.125	3.029726e-5
738.75	3.646265e-5
739.375	3.229332e-5
740	3.818517e-5
740.625	4.24136e-5
741.25	3.773663e-5
741.875	4.478944e-5
742.5	4.309398e-5
743.125	4.295987e-5
743.75	4.723175e-5
744.375	3.860803e-5
745	4.300727e-5
745.625	4.144763e-5
746.25	3.758264e-5
746.875	4.098171e-5
747.5	4.316018e-5
748.125	4.173036e-5
748.75	4.617098e-5
749.375	4.675802e-5
750	4.679693e-5
750.625	5.442809e-5
751.25	4.90358e-5
751.875	5.264753e-5
752.5	5.418017e-5
753.125	4.864622e-5
753.75	5.063853e-5
754.375	4.885672e-5
755	4.554537e-5
755.625	5.032551e-5
756.25	4.363464e-5
756.875	4.510209e-5
757.5	5.10276e-5
758.125	4.490274e-5
758.75	5.100613e-5
759.375	5.307835e-5
760	5.039875e-5
760.625	5.617483e-5
761.25	5.078065e-5
761.875	5.150084e-5
762.5	5.233036e-5
763.125	4.858978e-5
763.75	4.656438e-5
764.375	4.714315e-5
765	4.249537e-5
765.625	4.162335e-5
766.25	4.457697e-5
766.875	3.812608e-5
767.5	4.749546e-5
768.125	4.27955e-5
768.75	4.228464e-5
769.375	4.958959e-5
770	4.288079e-5
770.625	4.600261e-5
771.25	4.562168e-5
771.875	4.07224e-5
772.5	4.344163e-5
773.125	3.646691e-5
773.75	3.546424e-5
774.375	3.588532e-5
775	3.399076e-5
775.625	3.100114e-5
776.25	3.59704e-5
776.875	3.379777e-5
777.5	3.480781e-5
778.125	3.856982e-5
778.75	3.531108e-5
779.375	3.959886e-5
780	3.913294e-5
780.625	3.220595e-5
781.25	3.737108e-5
781.875	3.345326e-5
782.5	2.899814e-5
783.125	3.339383e-5
783.75	2.527117e-5
784.375	3.064794e-5
785	2.913045e-5
785.625	2.766486e-5
786.25	3.393827e-5
786.875	3.243878e-5
787.5	3.406386e-5
788.125	3.50041e-5
788.75	3.654934e-5
789.375	3.34816e-5
790	3.39642e-5
790.625	3.306367e-5
791.25	2.76364e-5
791.875	3.326579e-5
792.5	2.307257e-5
793.125	2.742754e-5
793.75	3.041586e-5
794.375	2.41411e-5
795	3.170077e-5
795.625	2.934026e-5
796.25	3.149103e-5
796.875	3.319534e-5
797.5	3.079453e-5
798.125	3.276361e-5
798.75	3.229495e-5
799.375	2.843597e-5
800	2.725956e-5
800.625	2.663843e-5
801.25	2.374339e-5
801.875	2.198282e-5
802.5	2.439493e-5
803.125	2.027304e-5
803.75	2.45005e-5
804.375	2.639538e-5
805	2.232826e-5
805.625	3.138224e-5
806.25	2.578843e-5
806.875	2.547669e-5
807.5	2.917751e-5
808.125	2.178178e-5
808.75	2.619203e-5
809.375	2.097437e-5
810	2.003414e-5
810.625	2.211703e-5
811.25	1.733841e-5
811.875	2.150335e-5
812.5	2.182483e-5
813.125	2.799478e-5
813.75	2.300622e-5
814.375	3.015431e-5
815	2.94054e-5
815.625	2.699896e-5
816.25	3.383305e-5
816.875	2.610709e-5
817.5	3.078453e-5
818.125	2.992116e-5
818.75	2.253703e-5
819.375	2.946462e-5
820	2.891424e-5
820.625	2.807373e-5
821.25	3.396594e-5
821.875	3.173219e-5
822.5	3.65796e-5
823.125	3.726739e-5
823.75	3.838378e-5
824.375	4.033046e-5
825	4.319962e-5
825.625	3.859969e-5
826.25	3.95085e-5
826.875	4.084369e-5
827.5	3.462295e-5
828.125	3.974561e-5
828.75	3.914901e-5
829.375	3.481104e-5
830	4.450568e-5
830.625	3.502928e-5
831.25	4.271161e-5
831.875	4.723014e-5
832.5	4.193663e-5
833.125	4.99693e-5
833.75	4.430054e-5
834.375	4.702118e-5
835	4.654705e-5
835.625	4.339636e-5
836.25	4.262095e-5
836.875	4.508466e-5
837.5	4.088623e-5
838.125	3.795416e-5
838.75	4.274033e-5
839.375	3.752845e-5
840	4.172127e-5
840.625	4.578375e-5
841.25	3.855192e-5
841.875	4.985146e-5
842.5	4.078451e-5
843.125	4.402083e-5
843.75	4.722086e-5
844.375	4.034286e-5
845	4.486244e-5
845.625	3.942095e-5
846.25	3.617533e-5
846.875	3.884588e-5
847.5	3.445662e-5
848.125	3.439089e-5
848.75	3.839936e-5
849.375	3.616721e-5
850	3.5002e-5
850.625	3.991537e-5
851.25	3.904436e-5
851.875	3.78291e-5
852.5	4.371198e-5
853.125	3.447205e-5
853.75	4.182559e-5
854.375	3.579349e-5
855	3.116064e-5
855.625	3.867566e-5
856.25	3.034889e-5
856.875	3.268817e-5
857.5	3.433266e-5
858.125	2.85654e-5
858.75	3.688343e-5
859.375	3.440751e-5
860	3.575057e-5
860.625	3.810445e-5
861.25	3.910555e-5
861.875	3.563421e-5
862.5	3.735227e-5
863.125	3.792418e-5
863.75	3.26703e-5
864.375	3.820899e-5
865	2.878941e-5
865.625	3.363122e-5
866.25	3.329359e-5
866.875	2.707021e-5
867.5	3.591627e-5
868.125	3.320663e-5
868.75	3.264322e-5
869.375	3.786127e-5
870	3.24446e-5
870.625	3.736932e-5
871.25	3.630298e-5
871.875	3.377995e-5
872.5	3.38738e-5
873.125	3.330305e-5
873.75	2.819016e-5
874.375	2.872759e-5
875	2.862693e-5
875.625	2.592896e-5
876.25	2.796289e-5
876.875	2.585029e-5
877.5	2.619327e-5
878.125	3.074199e-5
878.75	2.532591e-5
879.375	2.927514e-5
880	3.038734e-5
880.625	2.414316e-5
881.25	2.888564e-5
881.875	2.195021e-5
882.5	2.39958e-5
883.125	2.151512e-5
883.75	1.794723e-5
884.375	1.874403e-5
885	1.772189e-5
885.625	1.828426e-5
886.25	1.740585e-5
886.875	2.084557e-5
887.5	2.068929e-5
888.125	2.004789e-5
888.75	2.221693e-5
889.375	1.915435e-5
890	2.359975e-5
890.625	1.891372e-5
891.25	1.734803e-5
891.875	2.012019e-5
892.5	1.471024e-5
893.125	1.831455e-5
893.75	1.916655e-5
894.375	1.989321e-5
895	2.179025e-5
895.625	2.250977e-5
896.25	2.486851e-5
896.875	2.710578e-5
897.5	2.718933e-5
898.125	2.828389e-5
898.75	2.650657e-5
899.375	2.967707e-5
900	2.541706e-5
900.625	2.689636e-5
901.25	2.791489e-5
901.875	2.692075e-5
902.5	2.929461e-5
903.125	2.659619e-5
903.75	3.16301e-5
904.375	3.19999e-5
905	3.321082e-5
905.625	3.60561e-5
906.25	3.609632e-5
906.875	3.704523e-5
907.5	3.474892e-5
908.125	3.78019e-5
908.75	3.613986e-5
909.375	3.497771e-5
910	3.688638e-5
910.625	3.042619e-5
911.25	3.666108e-5
911.875	3.253638e-5
912.5	3.457805e-5
913.125	3.723596e-5
913.75	3.601604e-5
914.375	3.883985e-5
915	3.744474e-5
915.625	3.888375e-5
916.25	4.052003e-5
916.875	3.889815e-5
917.5	3.79701e-5
918.125	3.809576e-5
918.75	3.704295e-5
919.375	3.322802e-5
920	3.559826e-5
920.625	3.442574e-5
921.25	3.313592e-5
921.875	3.656212e-5
922.5	3.165949e-5
923.125	3.71622e-5
923.75	3.729868e-5
924.375	3.564e-5
925	4.012496e-5
925.625	3.708926e-5
926.25	3.713431e-5
926.875	3.821516e-5
927.5	3.285336e-5
928.125	3.814964e-5
928.75	3.347921e-5
929.375	3.256218e-5
930	3.266558e-5
930.625	3.467182e-5
931.25	3.185468e-5
931.875	3.437612e-5
932.5	3.763377e-5
933.125	3.467704e-5
933.75	4.039852e-5
934.375	3.620458e-5
935	3.853311e-5
935.625	4.089992e-5
936.25	3.473233e-5
936.875	3.956789e-5
937.5	3.582855e-5
938.125	3.435988e-5
938.75	3.784874e-5
939.375	3.186225e-5
940	3.68987e-5
940.625	3.594333e-5
941.25	3.62164e-5
941.875	3.636307e-5
942.5	4.141513e-5
943.125	3.782091e-5
943.75	4.049883e-5
944.375	3.98698e-5
945	3.811459e-5
945.625	4.05478e-5
946.25	3.704707e-5
946.875	3.604928e-5
947.5	3.880293e-5
948.125	3.134582e-5
948.75	3.562638e-5
949.375	3.46757e-5
950	3.189051e-5
950.625	3.73201e-5
951.25	3.338242e-5
951.875	3.470235e-5
952.5	3.675629e-5
953.125	3.403428e-5
953.75	3.49845e-5
954.375	3.605873e-5
955	3.299782e-5
955.625	3.300461e-5
956.25	2.883988e-5
956.875	2.848192e-5
957.5	2.805189e-5
958.125	2.701776e-5
958.75	2.30824e-5
959.375	2.832389e-5
960	2.189982e-5
960.625	2.458286e-5
961.25	2.648621e-5
961.875	2.360438e-5
962.5	2.727948e-5
963.125	2.433412e-5
963.75	2.064427e-5
964.375	2.399962e-5
965	1.871171e-5
965.625	1.972694e-5
966.25	1.82631e-5
966.875	1.577206e-5
967.5	1.515161e-5
968.125	1.306202e-5
968.75	1.521138e-5
969.375	1.562751e-5
970	1.837207e-5
970.625	1.405467e-5
971.25	1.87368e-5
971.875	1.613467e-5
972.5	1.503768e-5
973.125	1.80996e-5
973.75	1.648758e-5
974.375	1.375104e-5
975	1.564832e-5
975.625	1.066332e-5
976.25	1.506908e-5
976.875	1.627756e-5
977.5	1.435474e-5
978.125	1.855823e-5
978.75	1.772e-5
979.375	1.880731e-5
980	1.964345e-5
980.625	2.216969e-5
981.25	2.160951e-5
981.875	2.212189e-5
982.5	1.907466e-5
983.125	1.874216e-5
983.75	2.015068e-5
984.375	1.911133e-5
985	1.912153e-5
985.625	2.294575e-5
986.25	1.703593e-5
986.875	2.269779e-5
987.5	2.176871e-5
988.125	2.367929e-5
988.75	2.657041e-5
989.375	2.483841e-5
990	2.467554e-5
990.625	2.485829e-5
991.25	2.324769e-5
991.875	2.395795e-5
992.5	2.316367e-5
993.125	2.315105e-5
993.75	2.153702e-5
994.375	2.06494e-5
995	2.044072e-5
995.625	2.312483e-5
996.25	2.480645e-5
996.875	2.159764e-5
997.5	2.727204e-5
998.125	2.335478e-5
998.75	2.436164e-5
999.375	2.683948e-5
1000	2.489721e-5
