Source File Name:	Analyzer
Signal:	FFT - Vib Velocity - Magnitude

Frequency	Magnitude
[ Hz ]	[ m/s ]
20	0.002713989
20.625	0.002654024
21.25	0.002168632
21.875	0.001513614
22.5	0.001141019
23.125	0.000968846
23.75	0.0008652805
24.375	0.0007783555
25	0.000718758
25.625	0.0006601735
26.25	0.0006188889
26.875	0.0005817331
27.5	0.0005490333
28.125	0.0005216404
28.75	0.0004973289
29.375	0.0004752422
30	0.0004527846
30.625	0.0004336484
31.25	0.0004161968
31.875	0.0004008142
32.5	0.0003887129
33.125	0.0003780095
33.75	0.0003656237
34.375	0.0003548242
35	0.0003447138
35.625	0.0003368122
36.25	0.0003306279
36.875	0.0003287947
37.5	0.0003282228
38.125	0.0003293095
38.75	0.000325924
39.375	0.0003201061
40	0.0003045347
40.625	0.0002877035
41.25	0.000271783
41.875	0.0002562852
42.5	0.0002413127
43.125	0.0002300207
43.75	0.0002163258
44.375	0.0002083865
45	0.0002031493
45.625	0.0001961769
46.25	0.0001871937
46.875	0.0001780936
47.5	0.0001726808
48.125	0.0001687248
48.75	0.0001621046
49.375	0.0001550731
50	0.0001544836
50.625	0.0001479232
51.25	0.000140984
51.875	0.0001415946
52.5	0.0001357128
53.125	0.0001305069
53.75	0.0001312024
54.375	0.0001273672
55	0.0001201749
55.625	0.0001204728
56.25	0.00012
56.875	0.0001179209
57.5	0.0001133369
58.125	0.0001077351
58.75	0.000111223
59.375	0.0001094148
60	0.0001056644
60.625	0.0001034597
61.25	0.0001040884
61.875	9.794038e-5
62.5	9.49547e-5
63.125	8.815779e-5
63.75	8.595337e-5
64.375	8.379655e-5
65	8.140982e-5
65.625	7.786728e-5
66.25	7.315943e-5
66.875	7.175849e-5
67.5	6.964835e-5
68.125	6.885029e-5
68.75	6.49471e-5
69.375	6.290442e-5
70	6.231044e-5
70.625	6.280904e-5
71.25	6.14802e-5
71.875	6.079765e-5
72.5	6.006364e-5
73.125	6.09719e-5
73.75	6.019312e-5
74.375	6.04191e-5
75	5.994321e-5
75.625	6.058415e-5
76.25	6.175673e-5
76.875	6.034797e-5
77.5	5.990461e-5
78.125	5.985133e-5
78.75	6.138121e-5
79.375	6.219847e-5
80	6.164478e-5
80.625	6.092734e-5
81.25	6.198623e-5
81.875	6.280329e-5
82.5	6.361973e-5
83.125	6.343846e-5
83.75	6.463641e-5
84.375	6.373474e-5
85	6.504506e-5
85.625	6.472359e-5
86.25	6.540612e-5
86.875	6.998056e-5
87.5	7.122532e-5
88.125	7.039231e-5
88.75	7.140865e-5
89.375	7.222815e-5
90	7.394886e-5
90.625	7.54742e-5
91.25	7.495971e-5
91.875	7.635058e-5
92.5	7.828162e-5
93.125	7.967729e-5
93.75	7.750864e-5
94.375	8.239811e-5
95	8.283227e-5
95.625	8.538505e-5
96.25	8.567641e-5
96.875	8.632912e-5
97.5	8.816396e-5
98.125	8.966596e-5
98.75	8.955468e-5
99.375	9.056328e-5
100	9.217746e-5
100.625	9.401909e-5
101.25	9.573918e-5
101.875	9.654462e-5
102.5	9.761591e-5
103.125	0.0001001989
103.75	0.0001022199
104.375	0.0001039798
105	0.0001058877
105.625	0.0001084637
106.25	0.0001104985
106.875	0.0001124392
107.5	0.0001133315
108.125	0.0001162247
108.75	0.0001191058
109.375	0.0001230912
110	0.0001237877
110.625	0.0001281135
111.25	0.0001305762
111.875	0.0001347027
112.5	0.0001388845
113.125	0.0001419781
113.75	0.0001462511
114.375	0.0001506027
115	0.0001549059
115.625	0.0001593569
116.25	0.000164005
116.875	0.0001699354
117.5	0.0001771394
118.125	0.0001797687
118.75	0.0001856616
119.375	0.0001912976
120	0.0001973886
120.625	0.0002018282
121.25	0.0002085176
121.875	0.0002142129
122.5	0.000221832
123.125	0.0002290454
123.75	0.0002359966
124.375	0.0002434498
125	0.0002533238
125.625	0.0002642035
126.25	0.000274062
126.875	0.0002834821
127.5	0.0002960088
128.125	0.0003087631
128.75	0.0003214523
129.375	0.000334885
130	0.0003504423
130.625	0.0003675741
131.25	0.0003852134
131.875	0.0004035776
132.5	0.0004240902
133.125	0.0004467716
133.75	0.0004698077
134.375	0.0004947411
135	0.0005212663
135.625	0.0005484421
136.25	0.0005782052
136.875	0.000609411
137.5	0.0006408931
138.125	0.0006747624
138.75	0.0007091584
139.375	0.0007439333
140	0.0007766889
140.625	0.000806591
141.25	0.0008341174
141.875	0.0008556845
142.5	0.0008698586
143.125	0.0008756366
143.75	0.0008767896
144.375	0.0008696267
145	0.0008608624
145.625	0.0008474222
146.25	0.0008331883
146.875	0.0008240079
147.5	0.0008196541
148.125	0.0008162101
148.75	0.0008100319
149.375	0.0007988623
150	0.0007819385
150.625	0.00075974
151.25	0.0007307294
151.875	0.0006985893
152.5	0.0006640541
153.125	0.000632207
153.75	0.0006026764
154.375	0.0005751131
155	0.0005451969
155.625	0.0005222455
156.25	0.0005005305
156.875	0.0004818983
157.5	0.000462885
158.125	0.0004459667
158.75	0.0004302136
159.375	0.0004170944
160	0.0004041182
160.625	0.0003914869
161.25	0.0003788046
161.875	0.0003679311
162.5	0.0003580217
163.125	0.0003474477
163.75	0.0003364278
164.375	0.0003257483
165	0.0003174367
165.625	0.0003068592
166.25	0.0002970069
166.875	0.0002862597
167.5	0.0002785946
168.125	0.0002684942
168.75	0.0002600362
169.375	0.0002510394
170	0.0002424171
170.625	0.0002353369
171.25	0.0002273784
171.875	0.0002204985
172.5	0.000213722
173.125	0.0002083723
173.75	0.0002038095
174.375	0.0001984945
175	0.0001931499
175.625	0.0001905396
176.25	0.0001885225
176.875	0.0001865664
177.5	0.0001826853
178.125	0.0001820028
178.75	0.0001798746
179.375	0.0001802688
180	0.0001801236
180.625	0.0001800675
181.25	0.000181061
181.875	0.00018278
182.5	0.000184166
183.125	0.0001851537
183.75	0.0001863437
184.375	0.0001873315
185	0.0001885498
185.625	0.0001883137
186.25	0.0001865777
186.875	0.0001853976
187.5	0.0001836853
188.125	0.000181672
188.75	0.0001806614
189.375	0.0001781495
190	0.000175971
190.625	0.0001741121
191.25	0.0001727975
191.875	0.0001719455
192.5	0.0001707503
193.125	0.0001708762
193.75	0.0001718589
194.375	0.0001720458
195	0.0001724064
195.625	0.000175149
196.25	0.0001780873
196.875	0.0001814743
197.5	0.0001869532
198.125	0.0001933296
198.75	0.000203394
199.375	0.0002140733
200	0.0002236263
200.625	0.0002354325
201.25	0.0002468413
201.875	0.000261152
202.5	0.0002742059
203.125	0.0002889283
203.75	0.0003016031
204.375	0.0003186219
205	0.0003343536
205.625	0.0003533456
206.25	0.000371293
206.875	0.0003888904
207.5	0.0004048847
208.125	0.0004198085
208.75	0.0004335527
209.375	0.0004427282
210	0.0004482419
210.625	0.0004483224
211.25	0.0004469036
211.875	0.0004431948
212.5	0.0004360449
213.125	0.0004288351
213.75	0.0004195998
214.375	0.000412237
215	0.0004047414
215.625	0.0004004916
216.25	0.0003935129
216.875	0.0003878734
217.5	0.0003836273
218.125	0.0003781413
218.75	0.0003724706
219.375	0.0003669364
220	0.0003609005
220.625	0.0003545506
221.25	0.0003478415
221.875	0.0003414266
222.5	0.0003342538
223.125	0.000326954
223.75	0.0003211862
224.375	0.0003143321
225	0.000308074
225.625	0.000300509
226.25	0.0002960393
226.875	0.0002890028
227.5	0.000283771
228.125	0.0002768362
228.75	0.000271609
229.375	0.0002668407
230	0.0002617338
230.625	0.0002564783
231.25	0.0002514578
231.875	0.0002468592
232.5	0.0002434116
233.125	0.0002395464
233.75	0.0002353294
234.375	0.0002326561
235	0.0002305862
235.625	0.000228285
236.25	0.0002254203
236.875	0.0002228732
237.5	0.0002209566
238.125	0.0002218993
238.75	0.0002199288
239.375	0.0002197809
240	0.0002190451
240.625	0.0002185822
241.25	0.0002197621
241.875	0.0002192262
242.5	0.0002190441
243.125	0.0002215352
243.75	0.0002220094
244.375	0.0002226619
245	0.0002233117
245.625	0.0002238541
246.25	0.0002247508
246.875	0.0002263226
247.5	0.0002260384
248.125	0.0002258138
248.75	0.0002267878
249.375	0.0002252043
250	0.0002246801
250.625	0.0002205703
251.25	0.000218033
251.875	0.0002153422
252.5	0.0002102015
253.125	0.0002038449
253.75	0.0001971835
254.375	0.0001893304
255	0.0001818134
255.625	0.000173365
256.25	0.0001626598
256.875	0.0001536398
257.5	0.0001463668
258.125	0.0001397136
258.75	0.0001319956
259.375	0.0001252809
260	0.0001200953
260.625	0.0001172793
261.25	0.00011253
261.875	0.0001102468
262.5	0.0001065768
263.125	0.0001043973
263.75	0.0001025389
264.375	9.979148e-5
265	9.570773e-5
265.625	9.299536e-5
266.25	9.07409e-5
266.875	8.72448e-5
267.5	8.267718e-5
268.125	7.825779e-5
268.75	7.441449e-5
269.375	7.06789e-5
270	6.669902e-5
270.625	6.426124e-5
271.25	6.191089e-5
271.875	6.116983e-5
272.5	6.215337e-5
273.125	6.153377e-5
273.75	6.251392e-5
274.375	6.544848e-5
275	6.74203e-5
275.625	7.05088e-5
276.25	7.188232e-5
276.875	7.615349e-5
277.5	7.870137e-5
278.125	8.190952e-5
278.75	8.552439e-5
279.375	8.905625e-5
280	9.328687e-5
280.625	9.71119e-5
281.25	0.0001010199
281.875	0.0001037307
282.5	0.0001092728
283.125	0.0001136666
283.75	0.000117464
284.375	0.0001193941
285	0.0001231053
285.625	0.0001259872
286.25	0.0001291296
286.875	0.0001292602
287.5	0.0001312201
288.125	0.0001307268
288.75	0.000132309
289.375	0.0001312232
290	0.0001302698
290.625	0.0001284929
291.25	0.0001281829
291.875	0.0001265677
292.5	0.0001246098
293.125	0.0001223918
293.75	0.0001205124
294.375	0.0001206807
295	0.0001194541
295.625	0.0001180414
296.25	0.0001161985
296.875	0.0001158709
297.5	0.0001150452
298.125	0.0001146003
298.75	0.0001117916
299.375	0.0001122451
300	0.0001103534
300.625	0.0001094208
301.25	0.0001090713
301.875	0.0001076589
302.5	0.0001081092
303.125	0.000108184
303.75	0.000107206
304.375	0.0001057401
305	0.0001061522
305.625	0.000105542
306.25	0.0001048747
306.875	0.0001026618
307.5	0.0001021581
308.125	0.0001018277
308.75	0.0001012433
309.375	9.854427e-5
310	9.902052e-5
310.625	9.733246e-5
311.25	9.802534e-5
311.875	9.615467e-5
312.5	9.408632e-5
313.125	9.307038e-5
313.75	9.292427e-5
314.375	9.163431e-5
315	8.97177e-5
315.625	8.794894e-5
316.25	8.737629e-5
316.875	8.714021e-5
317.5	8.545563e-5
318.125	8.357398e-5
318.75	8.161727e-5
319.375	8.038201e-5
320	7.853029e-5
320.625	7.632459e-5
321.25	7.273601e-5
321.875	7.132446e-5
322.5	6.84447e-5
323.125	6.615384e-5
323.75	6.253406e-5
324.375	5.982186e-5
325	5.64958e-5
325.625	5.438372e-5
326.25	5.062961e-5
326.875	4.782743e-5
327.5	4.464143e-5
328.125	4.154976e-5
328.75	3.939357e-5
329.375	3.601285e-5
330	3.396604e-5
330.625	3.192912e-5
331.25	2.990245e-5
331.875	2.765576e-5
332.5	2.739566e-5
333.125	2.549704e-5
333.75	2.477536e-5
334.375	2.331628e-5
335	2.246549e-5
335.625	2.195735e-5
336.25	2.163869e-5
336.875	2.110635e-5
337.5	2.032352e-5
338.125	1.961591e-5
338.75	1.956391e-5
339.375	1.970539e-5
340	1.868911e-5
340.625	1.880065e-5
341.25	2.037471e-5
341.875	1.974368e-5
342.5	2.032958e-5
343.125	1.952398e-5
343.75	2.088736e-5
344.375	2.110936e-5
345	2.19802e-5
345.625	2.064541e-5
346.25	2.234337e-5
346.875	2.182886e-5
347.5	2.353763e-5
348.125	2.245773e-5
348.75	2.300746e-5
349.375	2.315274e-5
350	2.401991e-5
350.625	2.42822e-5
351.25	2.432098e-5
351.875	2.579042e-5
352.5	2.682387e-5
353.125	2.710494e-5
353.75	2.777325e-5
354.375	2.943703e-5
355	2.953085e-5
355.625	3.121631e-5
356.25	3.163502e-5
356.875	3.259596e-5
357.5	3.208772e-5
358.125	3.399345e-5
358.75	3.364601e-5
359.375	3.534115e-5
360	3.506853e-5
360.625	3.757462e-5
361.25	3.740973e-5
361.875	3.740751e-5
362.5	3.749468e-5
363.125	3.806251e-5
363.75	3.893827e-5
364.375	3.875746e-5
365	3.86365e-5
365.625	3.725292e-5
366.25	3.77801e-5
366.875	3.736226e-5
367.5	3.680787e-5
368.125	3.559732e-5
368.75	3.549988e-5
369.375	3.530457e-5
370	3.587854e-5
370.625	3.334482e-5
371.25	3.36615e-5
371.875	3.30874e-5
372.5	3.415069e-5
373.125	3.339255e-5
373.75	3.172535e-5
374.375	3.205519e-5
375	3.191319e-5
375.625	3.130718e-5
376.25	2.978735e-5
376.875	2.909595e-5
377.5	2.805127e-5
378.125	2.832499e-5
378.75	2.763687e-5
379.375	2.698641e-5
380	2.625449e-5
380.625	2.601194e-5
381.25	2.557307e-5
381.875	2.54435e-5
382.5	2.45118e-5
383.125	2.507439e-5
383.75	2.534034e-5
384.375	2.393074e-5
385	2.394093e-5
385.625	2.365348e-5
386.25	2.343715e-5
386.875	2.364072e-5
387.5	2.259963e-5
388.125	2.305959e-5
388.75	2.223011e-5
389.375	2.175258e-5
390	2.151535e-5
390.625	2.172964e-5
391.25	2.123285e-5
391.875	2.278433e-5
392.5	2.192763e-5
393.125	2.184631e-5
393.75	2.122744e-5
394.375	2.224185e-5
395	2.090522e-5
395.625	2.108114e-5
396.25	1.970526e-5
396.875	2.088003e-5
397.5	2.061819e-5
398.125	2.012762e-5
398.75	1.981853e-5
399.375	1.961285e-5
400	2.002706e-5
400.625	2.043064e-5
401.25	1.953068e-5
401.875	1.906403e-5
402.5	1.900214e-5
403.125	1.877261e-5
403.75	1.970841e-5
404.375	1.891165e-5
405	1.933975e-5
405.625	1.903387e-5
406.25	1.990479e-5
406.875	1.948792e-5
407.5	1.984034e-5
408.125	1.885233e-5
408.75	1.940733e-5
409.375	1.950984e-5
410	1.915942e-5
410.625	1.927695e-5
411.25	1.890505e-5
411.875	2.00962e-5
412.5	1.986786e-5
413.125	1.959458e-5
413.75	1.888524e-5
414.375	1.928952e-5
415	1.848387e-5
415.625	1.892365e-5
416.25	1.725178e-5
416.875	1.857452e-5
417.5	1.70139e-5
418.125	1.797487e-5
418.75	1.619058e-5
419.375	1.72291e-5
420	1.652516e-5
420.625	1.685796e-5
421.25	1.602877e-5
421.875	1.554843e-5
422.5	1.595318e-5
423.125	1.503517e-5
423.75	1.461453e-5
424.375	1.395208e-5
425	1.408651e-5
425.625	1.418302e-5
426.25	1.412392e-5
426.875	1.243064e-5
427.5	1.346751e-5
428.125	1.304798e-5
428.75	1.356085e-5
429.375	1.252469e-5
430	1.299025e-5
430.625	1.297524e-5
431.25	1.356241e-5
431.875	1.283898e-5
432.5	1.24215e-5
433.125	1.233593e-5
433.75	1.214064e-5
434.375	1.252797e-5
435	1.213692e-5
435.625	1.132095e-5
436.25	1.159669e-5
436.875	1.104198e-5
437.5	1.105343e-5
438.125	1.114021e-5
438.75	1.113129e-5
439.375	1.156185e-5
440	1.144033e-5
440.625	1.096625e-5
441.25	1.137318e-5
441.875	1.118641e-5
442.5	1.122668e-5
443.125	1.173365e-5
443.75	1.141465e-5
444.375	1.078104e-5
445	1.159617e-5
445.625	1.130914e-5
446.25	1.159614e-5
446.875	1.221495e-5
447.5	1.25986e-5
448.125	1.305951e-5
448.75	1.236154e-5
449.375	1.309871e-5
450	1.40416e-5
450.625	1.464222e-5
451.25	1.456265e-5
451.875	1.444064e-5
452.5	1.386222e-5
453.125	1.394775e-5
453.75	1.42393e-5
454.375	1.439872e-5
455	1.415488e-5
455.625	1.487092e-5
456.25	1.48959e-5
456.875	1.525639e-5
457.5	1.463099e-5
458.125	1.489841e-5
458.75	1.60727e-5
459.375	1.50053e-5
460	1.544039e-5
460.625	1.449606e-5
461.25	1.424679e-5
461.875	1.37338e-5
462.5	1.461934e-5
463.125	1.404146e-5
463.75	1.529541e-5
464.375	1.395119e-5
465	1.554984e-5
465.625	1.423248e-5
466.25	1.484165e-5
466.875	1.443165e-5
467.5	1.508508e-5
468.125	1.378209e-5
468.75	1.477215e-5
469.375	1.50535e-5
470	1.486123e-5
470.625	1.504501e-5
471.25	1.516719e-5
471.875	1.579138e-5
472.5	1.565344e-5
473.125	1.588698e-5
473.75	1.56834e-5
474.375	1.557412e-5
475	1.509895e-5
475.625	1.637359e-5
476.25	1.55214e-5
476.875	1.525534e-5
477.5	1.532294e-5
478.125	1.610526e-5
478.75	1.571533e-5
479.375	1.603226e-5
480	1.482596e-5
480.625	1.546643e-5
481.25	1.546453e-5
481.875	1.478454e-5
482.5	1.436721e-5
483.125	1.337902e-5
483.75	1.344808e-5
484.375	1.341345e-5
485	1.350572e-5
485.625	1.263493e-5
486.25	1.327685e-5
486.875	1.2362e-5
487.5	1.365727e-5
488.125	1.253486e-5
488.75	1.304142e-5
489.375	1.242387e-5
490	1.285664e-5
490.625	1.126911e-5
491.25	1.195867e-5
491.875	1.148069e-5
492.5	1.184875e-5
493.125	1.205403e-5
493.75	1.165259e-5
494.375	1.244376e-5
495	1.19373e-5
495.625	1.223331e-5
496.25	1.261857e-5
496.875	1.281875e-5
497.5	1.237566e-5
498.125	1.355193e-5
498.75	1.198381e-5
499.375	1.247076e-5
500	1.219658e-5
500.625	1.339132e-5
501.25	1.268782e-5
501.875	1.268105e-5
502.5	1.153862e-5
503.125	1.247741e-5
503.75	1.189624e-5
504.375	1.243284e-5
505	1.211045e-5
505.625	1.127149e-5
506.25	1.213919e-5
506.875	1.238217e-5
507.5	1.159146e-5
508.125	1.171339e-5
508.75	1.175623e-5
509.375	1.211314e-5
510	1.197552e-5
510.625	1.114368e-5
511.25	1.108193e-5
511.875	1.127911e-5
512.5	1.156582e-5
513.125	1.129775e-5
513.75	1.13958e-5
514.375	1.081888e-5
515	1.133227e-5
515.625	1.119948e-5
516.25	1.075473e-5
516.875	1.152361e-5
517.5	1.067844e-5
518.125	1.067132e-5
518.75	1.12397e-5
519.375	1.034662e-5
520	1.074643e-5
520.625	1.057716e-5
521.25	1.021537e-5
521.875	1.010307e-5
522.5	9.712745e-6
523.125	1.01118e-5
523.75	9.412351e-6
524.375	8.948066e-6
525	9.297632e-6
525.625	9.083007e-6
526.25	8.504761e-6
526.875	8.560669e-6
527.5	8.651572e-6
528.125	7.247728e-6
528.75	8.518615e-6
529.375	8.602795e-6
530	7.199123e-6
530.625	8.017864e-6
531.25	7.69571e-6
531.875	8.750803e-6
532.5	7.542561e-6
533.125	8.235093e-6
533.75	8.026023e-6
534.375	8.923177e-6
535	8.192469e-6
535.625	9.616843e-6
536.25	7.760522e-6
536.875	9.590207e-6
537.5	9.635446e-6
538.125	1.080625e-5
538.75	9.322983e-6
539.375	1.049171e-5
540	1.084084e-5
540.625	1.149476e-5
541.25	1.103746e-5
541.875	1.104584e-5
542.5	1.183005e-5
543.125	1.145912e-5
543.75	1.250088e-5
544.375	1.21324e-5
545	1.21311e-5
545.625	1.230198e-5
546.25	1.27515e-5
546.875	1.193857e-5
547.5	1.284782e-5
548.125	1.17992e-5
548.75	1.264819e-5
549.375	1.236434e-5
550	1.258546e-5
550.625	1.264501e-5
551.25	1.286942e-5
551.875	1.285319e-5
552.5	1.316689e-5
553.125	1.363866e-5
553.75	1.303389e-5
554.375	1.348397e-5
555	1.257664e-5
555.625	1.357823e-5
556.25	1.384673e-5
556.875	1.392993e-5
557.5	1.353922e-5
558.125	1.46012e-5
558.75	1.37142e-5
559.375	1.522579e-5
560	1.458618e-5
560.625	1.49586e-5
561.25	1.437915e-5
561.875	1.47034e-5
562.5	1.505516e-5
563.125	1.539176e-5
563.75	1.543201e-5
564.375	1.609469e-5
565	1.585937e-5
565.625	1.517576e-5
566.25	1.632725e-5
566.875	1.579214e-5
567.5	1.502707e-5
568.125	1.473023e-5
568.75	1.548662e-5
569.375	1.470608e-5
570	1.509004e-5
570.625	1.458279e-5
571.25	1.584574e-5
571.875	1.52724e-5
572.5	1.595702e-5
573.125	1.575923e-5
573.75	1.509541e-5
574.375	1.478742e-5
575	1.592825e-5
575.625	1.52299e-5
576.25	1.446788e-5
576.875	1.475045e-5
577.5	1.460603e-5
578.125	1.546233e-5
578.75	1.573761e-5
579.375	1.549703e-5
580	1.572726e-5
580.625	1.594902e-5
581.25	1.620107e-5
581.875	1.649148e-5
582.5	1.590764e-5
583.125	1.592704e-5
583.75	1.60647e-5
584.375	1.583642e-5
585	1.599034e-5
585.625	1.599155e-5
586.25	1.545269e-5
586.875	1.585396e-5
587.5	1.590885e-5
588.125	1.533261e-5
588.75	1.614191e-5
589.375	1.545863e-5
590	1.571229e-5
590.625	1.582864e-5
591.25	1.570825e-5
591.875	1.52938e-5
592.5	1.487964e-5
593.125	1.421552e-5
593.75	1.516702e-5
594.375	1.471342e-5
595	1.427567e-5
595.625	1.41163e-5
596.25	1.394686e-5
596.875	1.396862e-5
597.5	1.459226e-5
598.125	1.4495e-5
598.75	1.37964e-5
599.375	1.441064e-5
600	1.404027e-5
600.625	1.442948e-5
601.25	1.369143e-5
601.875	1.384342e-5
602.5	1.468845e-5
603.125	1.382956e-5
603.75	1.403267e-5
604.375	1.467467e-5
605	1.413636e-5
605.625	1.343156e-5
606.25	1.400913e-5
606.875	1.390081e-5
607.5	1.343615e-5
608.125	1.336934e-5
608.75	1.346602e-5
609.375	1.370392e-5
610	1.37779e-5
610.625	1.310693e-5
611.25	1.359802e-5
611.875	1.25821e-5
612.5	1.300345e-5
613.125	1.338488e-5
613.75	1.214926e-5
614.375	1.190877e-5
615	1.106369e-5
615.625	1.144772e-5
616.25	1.102756e-5
616.875	1.098015e-5
617.5	1.062683e-5
618.125	1.1385e-5
618.75	1.041309e-5
619.375	1.068323e-5
620	9.956257e-6
620.625	1.04048e-5
621.25	9.74939e-6
621.875	1.032549e-5
622.5	9.438462e-6
623.125	9.947289e-6
623.75	9.313354e-6
624.375	9.178379e-6
625	9.601727e-6
625.625	9.094329e-6
626.25	9.383104e-6
626.875	9.550785e-6
627.5	8.522493e-6
628.125	8.417307e-6
628.75	9.327155e-6
629.375	8.823517e-6
630	9.139911e-6
630.625	8.131045e-6
631.25	8.59353e-6
631.875	8.517749e-6
632.5	8.479186e-6
633.125	7.359032e-6
633.75	7.675691e-6
634.375	6.608715e-6
635	7.406476e-6
635.625	6.795655e-6
636.25	5.839768e-6
636.875	5.932517e-6
637.5	6.07474e-6
638.125	5.798703e-6
638.75	4.921939e-6
639.375	5.22675e-6
640	4.664332e-6
640.625	5.544588e-6
641.25	4.164058e-6
641.875	4.590522e-6
642.5	3.745389e-6
643.125	3.430764e-6
643.75	3.643888e-6
644.375	3.780983e-6
645	4.086454e-6
645.625	4.044827e-6
646.25	5.103322e-6
646.875	4.813022e-6
647.5	4.576367e-6
648.125	5.027446e-6
648.75	5.373874e-6
649.375	4.741301e-6
650	5.116386e-6
650.625	5.367308e-6
651.25	4.556202e-6
651.875	5.548021e-6
652.5	5.123068e-6
653.125	5.430531e-6
653.75	5.120079e-6
654.375	5.118932e-6
655	5.352315e-6
655.625	5.571704e-6
656.25	5.212661e-6
656.875	6.35876e-6
657.5	5.156316e-6
658.125	4.990769e-6
658.75	5.424118e-6
659.375	5.800144e-6
660	5.24039e-6
660.625	5.331626e-6
661.25	4.757018e-6
661.875	5.065637e-6
662.5	6.111351e-6
663.125	5.540932e-6
663.75	6.14327e-6
664.375	6.265957e-6
665	6.701156e-6
665.625	6.848594e-6
666.25	6.830142e-6
666.875	5.931226e-6
667.5	6.84018e-6
668.125	6.181903e-6
668.75	6.789104e-6
669.375	6.703929e-6
670	6.455492e-6
670.625	6.937934e-6
671.25	6.798391e-6
671.875	6.320085e-6
672.5	6.766169e-6
673.125	6.761896e-6
673.75	6.414039e-6
674.375	6.802947e-6
675	5.791687e-6
675.625	6.26158e-6
676.25	5.989901e-6
676.875	5.759766e-6
677.5	5.455915e-6
678.125	5.879791e-6
678.75	5.058303e-6
679.375	5.917721e-6
680	5.112593e-6
680.625	5.109916e-6
681.25	5.372441e-6
681.875	6.143415e-6
682.5	5.564229e-6
683.125	6.203226e-6
683.75	5.174844e-6
684.375	6.021939e-6
685	6.436674e-6
685.625	5.071817e-6
686.25	5.658183e-6
686.875	4.844466e-6
687.5	6.299701e-6
688.125	6.04442e-6
688.75	6.181994e-6
689.375	6.208965e-6
690	7.628657e-6
690.625	6.759055e-6
691.25	7.742247e-6
691.875	6.427309e-6
692.5	6.678813e-6
693.125	6.616181e-6
693.75	7.298637e-6
694.375	5.977231e-6
695	5.883529e-6
695.625	5.972084e-6
696.25	5.870655e-6
696.875	6.424575e-6
697.5	5.639959e-6
698.125	6.713845e-6
698.75	6.388756e-6
699.375	6.104881e-6
700	5.864119e-6
700.625	5.880281e-6
701.25	5.343627e-6
701.875	6.457832e-6
702.5	5.42734e-6
703.125	6.091405e-6
703.75	5.993013e-6
704.375	6.031148e-6
705	5.267145e-6
705.625	5.790773e-6
706.25	5.858521e-6
706.875	6.276272e-6
707.5	6.242386e-6
708.125	5.172572e-6
708.75	5.749802e-6
709.375	5.247813e-6
710	7.188193e-6
710.625	6.63183e-6
711.25	6.207654e-6
711.875	6.432103e-6
712.5	7.242548e-6
713.125	6.183244e-6
713.75	6.463886e-6
714.375	5.895759e-6
715	6.438385e-6
715.625	5.729775e-6
716.25	6.552437e-6
716.875	5.695616e-6
717.5	5.781234e-6
718.125	5.641323e-6
718.75	6.17168e-6
719.375	6.20664e-6
720	5.377126e-6
720.625	5.085845e-6
721.25	5.218269e-6
721.875	5.481219e-6
722.5	5.344353e-6
723.125	5.441456e-6
723.75	5.148468e-6
724.375	4.963256e-6
725	4.862194e-6
725.625	5.301914e-6
726.25	5.360075e-6
726.875	4.865618e-6
727.5	5.454147e-6
728.125	5.367545e-6
728.75	5.634506e-6
729.375	4.991941e-6
730	5.769059e-6
730.625	5.58809e-6
731.25	5.719991e-6
731.875	6.045671e-6
732.5	5.521395e-6
733.125	5.21734e-6
733.75	5.88286e-6
734.375	6.461235e-6
735	5.167967e-6
735.625	5.847673e-6
736.25	5.606692e-6
736.875	5.960711e-6
737.5	5.12709e-6
738.125	5.480681e-6
738.75	5.794257e-6
739.375	5.775742e-6
740	5.667159e-6
740.625	5.846743e-6
741.25	5.276765e-6
741.875	4.707157e-6
742.5	5.002674e-6
743.125	4.541405e-6
743.75	3.864832e-6
744.375	4.352966e-6
745	4.28789e-6
745.625	4.668897e-6
746.25	4.024294e-6
746.875	4.337629e-6
747.5	4.147647e-6
748.125	4.275989e-6
748.75	4.551492e-6
749.375	4.285754e-6
750	4.392809e-6
750.625	5.087111e-6
751.25	4.373209e-6
751.875	4.661223e-6
752.5	4.74165e-6
753.125	4.740961e-6
753.75	4.923347e-6
754.375	4.752999e-6
755	4.090558e-6
755.625	5.010393e-6
756.25	5.316515e-6
756.875	4.578764e-6
757.5	5.414446e-6
758.125	4.641054e-6
758.75	5.970185e-6
759.375	4.904908e-6
760	4.529789e-6
760.625	5.217597e-6
761.25	5.635778e-6
761.875	4.13569e-6
762.5	4.696506e-6
763.125	3.742176e-6
763.75	4.731449e-6
764.375	4.547606e-6
765	5.237391e-6
765.625	3.680648e-6
766.25	3.909997e-6
766.875	3.740274e-6
767.5	4.462981e-6
768.125	4.377399e-6
768.75	3.426815e-6
769.375	4.437967e-6
770	4.370325e-6
770.625	4.841243e-6
771.25	4.184796e-6
771.875	4.123838e-6
772.5	4.671302e-6
773.125	5.478284e-6
773.75	4.23487e-6
774.375	4.544358e-6
775	4.467337e-6
775.625	5.494574e-6
776.25	5.732365e-6
776.875	5.861313e-6
777.5	5.65577e-6
778.125	5.898028e-6
778.75	5.704076e-6
779.375	5.122319e-6
780	5.400032e-6
780.625	4.103567e-6
781.25	5.067243e-6
781.875	4.814395e-6
782.5	4.922293e-6
783.125	5.036326e-6
783.75	5.28129e-6
784.375	5.11213e-6
785	5.400894e-6
785.625	4.627761e-6
786.25	5.371081e-6
786.875	5.182372e-6
787.5	4.82054e-6
788.125	4.529925e-6
788.75	4.522704e-6
789.375	5.044177e-6
790	5.424167e-6
790.625	4.73196e-6
791.25	4.907192e-6
791.875	5.748074e-6
792.5	5.285883e-6
793.125	5.497056e-6
793.75	5.459385e-6
794.375	4.890627e-6
795	6.426611e-6
795.625	6.552785e-6
796.25	6.773394e-6
796.875	5.675319e-6
797.5	6.294235e-6
798.125	7.122503e-6
798.75	6.717349e-6
799.375	5.84278e-6
800	6.027507e-6
800.625	6.179874e-6
801.25	6.194387e-6
801.875	6.062204e-6
802.5	5.990649e-6
803.125	5.195129e-6
803.75	6.161001e-6
804.375	6.205815e-6
805	5.906852e-6
805.625	5.806826e-6
806.25	5.395321e-6
806.875	6.3248e-6
807.5	5.326077e-6
808.125	4.980693e-6
808.75	5.272393e-6
809.375	5.449167e-6
810	5.495329e-6
810.625	5.859317e-6
811.25	5.142838e-6
811.875	5.812663e-6
812.5	5.524554e-6
813.125	5.603772e-6
813.75	5.08008e-6
814.375	6.129717e-6
815	6.201277e-6
815.625	6.292356e-6
816.25	5.518497e-6
816.875	5.629154e-6
817.5	6.697783e-6
818.125	5.617703e-6
818.75	6.104144e-6
819.375	5.292773e-6
820	5.96628e-6
820.625	5.855406e-6
821.25	6.201606e-6
821.875	5.006601e-6
822.5	5.848239e-6
823.125	5.729372e-6
823.75	6.41342e-6
824.375	5.494679e-6
825	4.926547e-6
825.625	4.679783e-6
826.25	5.485939e-6
826.875	5.003778e-6
827.5	4.466168e-6
828.125	4.513385e-6
828.75	3.894963e-6
829.375	5.701335e-6
830	4.058617e-6
830.625	4.765264e-6
831.25	4.256996e-6
831.875	4.979372e-6
832.5	4.734606e-6
833.125	5.336833e-6
833.75	4.183705e-6
834.375	6.107484e-6
835	5.687879e-6
835.625	6.100165e-6
836.25	4.727842e-6
836.875	5.040879e-6
837.5	5.382012e-6
838.125	5.94375e-6
838.75	5.075268e-6
839.375	5.258365e-6
840	6.032902e-6
840.625	5.149142e-6
841.25	6.140607e-6
841.875	5.456636e-6
842.5	6.144133e-6
843.125	5.879843e-6
843.75	6.059493e-6
844.375	4.863092e-6
845	5.482366e-6
845.625	4.737292e-6
846.25	5.471339e-6
846.875	4.330197e-6
847.5	4.126296e-6
848.125	4.682623e-6
848.75	5.154408e-6
849.375	4.317973e-6
850	4.455286e-6
850.625	4.131012e-6
851.25	4.420945e-6
851.875	5.394768e-6
852.5	3.668398e-6
853.125	4.451766e-6
853.75	4.54374e-6
854.375	5.541862e-6
855	4.405696e-6
855.625	4.375597e-6
856.25	4.683854e-6
856.875	5.787928e-6
857.5	4.890823e-6
858.125	5.314054e-6
858.75	4.945592e-6
859.375	4.9242e-6
860	5.408142e-6
860.625	5.526683e-6
861.25	5.17682e-6
861.875	5.262179e-6
862.5	5.580599e-6
863.125	5.179828e-6
863.75	5.259349e-6
864.375	5.143202e-6
865	5.298464e-6
865.625	5.626841e-6
866.25	4.79879e-6
866.875	5.191242e-6
867.5	4.671952e-6
868.125	5.376874e-6
868.75	5.135551e-6
869.375	4.418854e-6
870	4.601831e-6
870.625	5.360673e-6
871.25	4.61276e-6
871.875	4.79753e-6
872.5	4.323332e-6
873.125	5.157788e-6
873.75	4.841308e-6
874.375	4.75002e-6
875	4.634059e-6
875.625	5.0608e-6
876.25	6.028717e-6
876.875	6.347433e-6
877.5	5.564139e-6
878.125	4.358898e-6
878.75	5.870139e-6
879.375	5.895917e-6
880	5.534094e-6
880.625	5.051169e-6
881.25	5.538066e-6
881.875	5.278528e-6
882.5	5.684558e-6
883.125	4.412097e-6
883.75	5.347823e-6
884.375	5.077977e-6
885	5.881077e-6
885.625	5.831627e-6
886.25	5.4297e-6
886.875	4.846384e-6
887.5	5.506403e-6
888.125	5.590915e-6
888.75	4.851068e-6
889.375	5.240654e-6
890	3.986629e-6
890.625	5.164763e-6
891.25	3.8918e-6
891.875	3.869338e-6
892.5	3.735911e-6
893.125	4.365071e-6
893.75	4.119919e-6
894.375	4.935113e-6
895	4.003205e-6
895.625	5.648852e-6
896.25	5.389365e-6
896.875	4.928284e-6
897.5	4.789391e-6
898.125	5.065465e-6
898.75	5.39016e-6
899.375	5.303454e-6
900	5.130199e-6
900.625	3.925647e-6
901.25	5.742467e-6
901.875	4.311435e-6
902.5	5.505284e-6
903.125	4.503542e-6
903.75	5.018256e-6
904.375	5.663775e-6
905	6.36127e-6
905.625	4.328148e-6
906.25	5.135384e-6
906.875	4.495423e-6
907.5	5.865328e-6
908.125	4.945742e-6
908.75	4.1885e-6
909.375	4.606967e-6
910	5.380158e-6
910.625	4.537301e-6
911.25	3.64022e-6
911.875	3.919463e-6
912.5	3.672837e-6
913.125	4.74554e-6
913.75	3.621015e-6
914.375	3.950499e-6
915	3.735799e-6
915.625	4.209387e-6
916.25	4.270191e-6
916.875	4.499496e-6
917.5	3.446418e-6
918.125	5.156707e-6
918.75	4.920903e-6
919.375	4.119757e-6
920	3.749341e-6
920.625	4.507128e-6
921.25	4.811407e-6
921.875	4.907389e-6
922.5	4.744864e-6
923.125	4.648164e-6
923.75	5.952129e-6
924.375	4.330615e-6
925	4.968125e-6
925.625	3.73515e-6
926.25	4.395746e-6
926.875	5.330614e-6
927.5	5.247982e-6
928.125	3.73587e-6
928.75	3.94849e-6
929.375	4.189826e-6
930	5.110742e-6
930.625	3.905713e-6
931.25	2.960078e-6
931.875	3.809277e-6
932.5	4.091561e-6
933.125	3.601705e-6
933.75	2.772073e-6
934.375	3.022572e-6
935	3.615003e-6
935.625	4.273867e-6
936.25	3.139613e-6
936.875	2.542613e-6
937.5	3.046126e-6
938.125	2.876276e-6
938.75	3.305429e-6
939.375	3.143702e-6
940	3.014889e-6
940.625	3.49871e-6
941.25	3.730289e-6
941.875	3.57185e-6
942.5	3.831971e-6
943.125	3.379981e-6
943.75	4.085215e-6
944.375	3.653228e-6
945	2.90643e-6
945.625	3.306446e-6
946.25	3.185816e-6
946.875	3.813211e-6
947.5	3.620787e-6
948.125	2.7205e-6
948.75	2.750535e-6
949.375	3.619048e-6
950	2.967296e-6
950.625	3.185777e-6
951.25	2.214803e-6
951.875	3.415876e-6
952.5	2.668981e-6
953.125	2.131715e-6
953.75	1.839184e-6
954.375	3.810339e-6
955	3.034607e-6
955.625	3.224582e-6
956.25	2.464496e-6
956.875	2.082983e-6
957.5	2.55321e-6
958.125	3.166416e-6
958.75	2.091658e-6
959.375	1.772153e-6
960	2.812707e-6
960.625	3.223022e-6
961.25	4.020979e-6
961.875	2.828685e-6
962.5	3.847965e-6
963.125	3.497756e-6
963.75	3.770421e-6
964.375	3.146331e-6
965	3.194768e-6
965.625	2.31657e-6
966.25	3.671019e-6
966.875	3.215814e-6
967.5	2.502393e-6
968.125	1.982962e-6
968.75	2.734713e-6
969.375	3.452072e-6
970	3.177984e-6
970.625	2.39726e-6
971.25	2.355624e-6
971.875	3.10916e-6
972.5	1.830811e-6
973.125	2.447771e-6
973.75	2.036602e-6
974.375	2.629331e-6
975	1.987759e-6
975.625	2.290584e-6
976.25	1.796699e-6
976.875	2.505161e-6
977.5	1.547722e-6
978.125	2.229729e-6
978.75	1.97233e-6
979.375	2.465802e-6
980	3.160393e-6
980.625	2.825783e-6
981.25	2.296777e-6
981.875	2.420411e-6
982.5	2.579865e-6
983.125	2.342113e-6
983.75	2.876401e-6
984.375	3.406087e-6
985	2.812234e-6
985.625	3.027829e-6
986.25	3.141529e-6
986.875	2.193871e-6
987.5	2.40335e-6
988.125	3.578461e-6
988.75	4.146072e-6
989.375	2.970203e-6
990	2.388448e-6
990.625	2.086561e-6
991.25	2.173061e-6
991.875	2.62212e-6
992.5	2.627407e-6
993.125	2.136032e-6
993.75	2.326891e-6
994.375	2.558671e-6
995	1.307708e-6
995.625	2.041878e-6
996.25	1.903667e-6
996.875	1.629075e-6
997.5	1.767357e-6
998.125	2.10555e-6
998.75	1.570448e-6
999.375	2.35851e-6
1000	1.998139e-6
