Source File Name:	Analyzer
Signal:	FFT - Vib Velocity - Magnitude

Frequency	Magnitude
[ Hz ]	[ m/s ]
20	0.002295468
20.625	0.001955751
21.25	0.001478349
21.875	0.001124565
22.5	0.0009108253
23.125	0.0008001854
23.75	0.0007226286
24.375	0.0006580651
25	0.0006335549
25.625	0.0005844776
26.25	0.0005488006
26.875	0.0005208873
27.5	0.0004891492
28.125	0.0004636764
28.75	0.0004326738
29.375	0.0004120259
30	0.0003934537
30.625	0.0003786038
31.25	0.0003659967
31.875	0.0003550628
32.5	0.0003488915
33.125	0.0003395426
33.75	0.0003376819
34.375	0.0003319244
35	0.0003276572
35.625	0.0003261312
36.25	0.0003203998
36.875	0.0003175361
37.5	0.0003089342
38.125	0.0002973796
38.75	0.0002820422
39.375	0.0002655034
40	0.0002456372
40.625	0.0002252227
41.25	0.0002086263
41.875	0.000202315
42.5	0.0001914639
43.125	0.0001817047
43.75	0.0001714101
44.375	0.0001625109
45	0.0001605208
45.625	0.0001476788
46.25	0.0001413431
46.875	0.000136082
47.5	0.000130247
48.125	0.000124424
48.75	0.0001216954
49.375	0.0001172961
50	0.000113046
50.625	0.0001034271
51.25	9.884181e-5
51.875	9.073265e-5
52.5	9.081624e-5
53.125	9.003122e-5
53.75	8.031604e-5
54.375	8.33858e-5
55	7.580985e-5
55.625	7.566838e-5
56.25	6.277236e-5
56.875	6.106011e-5
57.5	5.773488e-5
58.125	5.438194e-5
58.75	6.838395e-5
59.375	5.830293e-5
60	5.814239e-5
60.625	5.168492e-5
61.25	6.009532e-5
61.875	4.946799e-5
62.5	5.563293e-5
63.125	5.076136e-5
63.75	4.859174e-5
64.375	5.053855e-5
65	4.93508e-5
65.625	5.353506e-5
66.25	5.209741e-5
66.875	5.368541e-5
67.5	5.436915e-5
68.125	5.248548e-5
68.75	5.916495e-5
69.375	5.771112e-5
70	5.657048e-5
70.625	6.20052e-5
71.25	6.300881e-5
71.875	6.753015e-5
72.5	6.408833e-5
73.125	6.780333e-5
73.75	6.890799e-5
74.375	7.003619e-5
75	7.537939e-5
75.625	7.72003e-5
76.25	7.913163e-5
76.875	7.924532e-5
77.5	8.186952e-5
78.125	8.765391e-5
78.75	9.189548e-5
79.375	9.219458e-5
80	9.468068e-5
80.625	9.786004e-5
81.25	0.0001002083
81.875	0.0001030553
82.5	0.0001024446
83.125	0.0001089969
83.75	0.0001092452
84.375	0.0001105091
85	0.0001150489
85.625	0.0001163201
86.25	0.0001245456
86.875	0.0001223198
87.5	0.000124519
88.125	0.0001298494
88.75	0.0001314962
89.375	0.0001364038
90	0.0001376542
90.625	0.000137985
91.25	0.0001436593
91.875	0.0001459154
92.5	0.0001483831
93.125	0.0001512642
93.75	0.0001542511
94.375	0.0001596181
95	0.0001618519
95.625	0.0001677814
96.25	0.0001661122
96.875	0.000169589
97.5	0.0001758169
98.125	0.0001762725
98.75	0.0001807378
99.375	0.0001846043
100	0.0001867674
100.625	0.0001915632
101.25	0.0001932066
101.875	0.0001981975
102.5	0.0001999109
103.125	0.0002068406
103.75	0.0002092208
104.375	0.000209793
105	0.0002148702
105.625	0.0002209358
106.25	0.0002225326
106.875	0.0002267227
107.5	0.000230619
108.125	0.0002367655
108.75	0.0002399359
109.375	0.0002449239
110	0.0002506774
110.625	0.0002503528
111.25	0.0002585101
111.875	0.0002607709
112.5	0.0002650086
113.125	0.0002719568
113.75	0.0002726986
114.375	0.000279068
115	0.0002824981
115.625	0.0002868995
116.25	0.0002941645
116.875	0.0002943646
117.5	0.000306221
118.125	0.0003076549
118.75	0.0003105994
119.375	0.0003167185
120	0.0003192669
120.625	0.0003284942
121.25	0.0003345937
121.875	0.0003389093
122.5	0.000346727
123.125	0.0003517519
123.75	0.0003591001
124.375	0.0003652896
125	0.0003698148
125.625	0.0003775128
126.25	0.0003825055
126.875	0.0003948349
127.5	0.0004009684
128.125	0.0004101409
128.75	0.0004194728
129.375	0.0004234195
130	0.000434823
130.625	0.0004426792
131.25	0.0004520419
131.875	0.0004634373
132.5	0.0004725448
133.125	0.0004838692
133.75	0.0004955983
134.375	0.0005076552
135	0.0005190846
135.625	0.0005346233
136.25	0.0005494998
136.875	0.0005659669
137.5	0.0005810422
138.125	0.0006016836
138.75	0.0006188596
139.375	0.0006443562
140	0.0006639599
140.625	0.0006848861
141.25	0.0007103241
141.875	0.0007321967
142.5	0.0007616686
143.125	0.000788491
143.75	0.0008134492
144.375	0.0008450465
145	0.0008699376
145.625	0.0008983469
146.25	0.0009236201
146.875	0.0009464617
147.5	0.0009694655
148.125	0.0009864621
148.75	0.00100131
149.375	0.001010957
150	0.001017508
150.625	0.00103551
151.25	0.001049956
151.875	0.001069074
152.5	0.001090189
153.125	0.001107995
153.75	0.001125187
154.375	0.001128139
155	0.0011191
155.625	0.001097235
156.25	0.001060413
156.875	0.001014281
157.5	0.0009587712
158.125	0.0008978462
158.75	0.0008391285
159.375	0.0007771953
160	0.0007223518
160.625	0.0006738277
161.25	0.000624289
161.875	0.0005793789
162.5	0.0005419091
163.125	0.0005067262
163.75	0.0004760928
164.375	0.0004440801
165	0.0004231273
165.625	0.0003962232
166.25	0.0003756719
166.875	0.0003545358
167.5	0.0003316081
168.125	0.0003170854
168.75	0.0002982281
169.375	0.0002812934
170	0.0002662902
170.625	0.0002478107
171.25	0.000237251
171.875	0.0002223044
172.5	0.0002077678
173.125	0.0001952073
173.75	0.0001811307
174.375	0.0001675668
175	0.000151468
175.625	0.000141276
176.25	0.0001257278
176.875	0.0001114819
177.5	0.0001050484
178.125	9.382655e-5
178.75	8.764907e-5
179.375	8.136976e-5
180	7.414496e-5
180.625	7.421758e-5
181.25	7.277571e-5
181.875	7.213211e-5
182.5	7.257242e-5
183.125	7.512598e-5
183.75	8.441992e-5
184.375	8.908232e-5
185	9.80363e-5
185.625	0.0001021678
186.25	0.0001094208
186.875	0.0001196022
187.5	0.0001274726
188.125	0.0001366617
188.75	0.0001437085
189.375	0.000154176
190	0.0001658077
190.625	0.0001756073
191.25	0.0001877312
191.875	0.0001985535
192.5	0.0002075349
193.125	0.0002211124
193.75	0.0002294828
194.375	0.0002474097
195	0.0002573196
195.625	0.0002724947
196.25	0.0002850619
196.875	0.0002965083
197.5	0.0003164016
198.125	0.000327288
198.75	0.000342226
199.375	0.0003587191
200	0.00037388
200.625	0.0003921603
201.25	0.0004078612
201.875	0.0004223637
202.5	0.0004429801
203.125	0.0004551171
203.75	0.0004713261
204.375	0.000484264
205	0.0004972141
205.625	0.0005054476
206.25	0.0005125037
206.875	0.0005210004
207.5	0.0005269945
208.125	0.0005304728
208.75	0.0005351868
209.375	0.0005331781
210	0.0005376975
210.625	0.0005393964
211.25	0.0005386571
211.875	0.0005424776
212.5	0.00054402
213.125	0.0005459054
213.75	0.0005510543
214.375	0.0005506141
215	0.0005513101
215.625	0.000546606
216.25	0.0005369753
216.875	0.00052875
217.5	0.000513399
218.125	0.0004985547
218.75	0.0004794894
219.375	0.0004603895
220	0.0004459219
220.625	0.0004266822
221.25	0.0004097716
221.875	0.0003927202
222.5	0.0003756539
223.125	0.0003665011
223.75	0.0003463134
224.375	0.0003361171
225	0.0003233176
225.625	0.0003109245
226.25	0.0003007604
226.875	0.0002876201
227.5	0.0002783975
228.125	0.0002685338
228.75	0.0002579175
229.375	0.0002496289
230	0.0002406944
230.625	0.0002351109
231.25	0.0002244156
231.875	0.0002177543
232.5	0.0002120363
233.125	0.0002028742
233.75	0.000197259
234.375	0.0001914459
235	0.0001852939
235.625	0.0001805016
236.25	0.0001723451
236.875	0.0001650364
237.5	0.0001599412
238.125	0.0001538025
238.75	0.0001500451
239.375	0.0001401411
240	0.0001351087
240.625	0.0001320905
241.25	0.0001256486
241.875	0.0001218703
242.5	0.0001156027
243.125	0.0001092506
243.75	0.0001067129
244.375	9.710626e-5
245	9.535869e-5
245.625	8.75226e-5
246.25	8.266608e-5
246.875	7.926464e-5
247.5	7.13107e-5
248.125	7.032753e-5
248.75	6.453708e-5
249.375	6.345003e-5
250	5.84371e-5
250.625	5.19136e-5
251.25	4.986405e-5
251.875	4.471252e-5
252.5	4.173382e-5
253.125	3.956867e-5
253.75	3.185295e-5
254.375	3.12775e-5
255	2.935524e-5
255.625	2.648785e-5
256.25	2.228843e-5
256.875	1.873005e-5
257.5	1.809478e-5
258.125	1.633507e-5
258.75	1.796564e-5
259.375	1.608799e-5
260	1.403348e-5
260.625	1.550552e-5
261.25	1.463155e-5
261.875	1.722126e-5
262.5	1.818599e-5
263.125	1.756626e-5
263.75	2.069394e-5
264.375	2.325266e-5
265	3.016194e-5
265.625	2.790782e-5
266.25	3.153413e-5
266.875	3.517005e-5
267.5	3.597482e-5
268.125	4.114098e-5
268.75	4.151135e-5
269.375	4.419542e-5
270	4.98032e-5
270.625	4.946173e-5
271.25	5.288333e-5
271.875	5.182529e-5
272.5	5.534498e-5
273.125	5.641783e-5
273.75	5.438249e-5
274.375	5.790872e-5
275	5.427515e-5
275.625	5.498506e-5
276.25	5.588711e-5
276.875	5.484672e-5
277.5	5.64997e-5
278.125	5.413689e-5
278.75	5.55576e-5
279.375	5.687071e-5
280	5.342683e-5
280.625	5.484107e-5
281.25	4.994272e-5
281.875	5.026184e-5
282.5	4.954871e-5
283.125	4.908431e-5
283.75	5.057147e-5
284.375	5.322955e-5
285	5.18917e-5
285.625	5.328326e-5
286.25	5.191261e-5
286.875	5.574158e-5
287.5	5.334812e-5
288.125	5.528939e-5
288.75	5.95084e-5
289.375	6.382712e-5
290	7.035895e-5
290.625	7.081027e-5
291.25	7.349409e-5
291.875	7.842922e-5
292.5	7.730609e-5
293.125	8.122119e-5
293.75	8.229465e-5
294.375	8.637699e-5
295	8.953374e-5
295.625	8.75891e-5
296.25	9.204468e-5
296.875	9.13515e-5
297.5	9.000653e-5
298.125	9.075429e-5
298.75	8.785909e-5
299.375	8.565076e-5
300	8.402263e-5
300.625	8.233908e-5
301.25	8.313147e-5
301.875	7.880317e-5
302.5	7.849292e-5
303.125	7.565818e-5
303.75	7.385093e-5
304.375	7.242467e-5
305	6.690277e-5
305.625	6.360216e-5
306.25	6.207657e-5
306.875	5.855206e-5
307.5	5.826369e-5
308.125	5.417074e-5
308.75	5.147814e-5
309.375	5.37937e-5
310	4.967761e-5
310.625	4.945302e-5
311.25	4.627483e-5
311.875	4.47618e-5
312.5	4.322799e-5
313.125	4.269064e-5
313.75	4.214966e-5
314.375	4.057032e-5
315	4.010501e-5
315.625	4.233755e-5
316.25	3.903072e-5
316.875	4.039985e-5
317.5	3.842749e-5
318.125	3.684514e-5
318.75	3.918693e-5
319.375	3.749226e-5
320	3.936459e-5
320.625	3.922976e-5
321.25	3.623089e-5
321.875	4.089221e-5
322.5	3.682929e-5
323.125	3.68136e-5
323.75	3.608573e-5
324.375	3.360107e-5
325	3.693136e-5
325.625	3.080722e-5
326.25	3.47593e-5
326.875	3.246094e-5
327.5	3.347902e-5
328.125	3.455991e-5
328.75	3.288318e-5
329.375	3.321089e-5
330	3.277803e-5
330.625	2.983822e-5
331.25	2.941872e-5
331.875	2.696065e-5
332.5	2.959307e-5
333.125	2.707235e-5
333.75	2.609553e-5
334.375	2.836675e-5
335	2.93594e-5
335.625	2.939066e-5
336.25	2.891469e-5
336.875	2.638324e-5
337.5	2.661563e-5
338.125	2.628491e-5
338.75	2.501226e-5
339.375	2.809015e-5
340	2.732594e-5
340.625	3.090994e-5
341.25	2.803174e-5
341.875	3.133991e-5
342.5	3.190935e-5
343.125	3.064635e-5
343.75	3.216117e-5
344.375	3.204291e-5
345	3.178945e-5
345.625	3.312579e-5
346.25	3.084223e-5
346.875	3.395103e-5
347.5	3.267173e-5
348.125	3.58636e-5
348.75	3.540413e-5
349.375	3.468379e-5
350	3.670473e-5
350.625	3.443277e-5
351.25	3.446912e-5
351.875	3.556504e-5
352.5	3.335008e-5
353.125	3.487559e-5
353.75	3.414281e-5
354.375	3.503641e-5
355	3.743423e-5
355.625	3.317388e-5
356.25	3.608429e-5
356.875	3.427574e-5
357.5	3.653151e-5
358.125	3.574974e-5
358.75	3.482957e-5
359.375	3.642115e-5
360	3.921925e-5
360.625	3.889323e-5
361.25	4.033705e-5
361.875	3.856311e-5
362.5	4.072576e-5
363.125	4.037986e-5
363.75	4.198095e-5
364.375	4.362426e-5
365	4.159518e-5
365.625	4.383191e-5
366.25	4.402843e-5
366.875	4.298268e-5
367.5	4.650252e-5
368.125	4.438206e-5
368.75	4.49456e-5
369.375	4.586664e-5
370	4.393121e-5
370.625	4.460328e-5
371.25	4.212317e-5
371.875	4.414642e-5
372.5	4.487294e-5
373.125	4.347175e-5
373.75	4.561098e-5
374.375	4.292602e-5
375	4.567226e-5
375.625	4.366713e-5
376.25	4.22088e-5
376.875	4.516399e-5
377.5	4.127048e-5
378.125	4.453266e-5
378.75	4.387857e-5
379.375	4.506819e-5
380	4.781213e-5
380.625	4.476901e-5
381.25	4.759005e-5
381.875	4.651465e-5
382.5	4.862952e-5
383.125	4.94997e-5
383.75	5.012505e-5
384.375	5.174796e-5
385	5.232216e-5
385.625	5.155752e-5
386.25	5.22618e-5
386.875	5.152162e-5
387.5	5.504718e-5
388.125	5.521815e-5
388.75	5.529137e-5
389.375	5.934264e-5
390	5.70994e-5
390.625	5.764268e-5
391.25	5.830531e-5
391.875	5.613526e-5
392.5	5.75483e-5
393.125	5.658047e-5
393.75	5.827748e-5
394.375	5.84031e-5
395	5.698885e-5
395.625	5.897074e-5
396.25	5.615859e-5
396.875	5.939143e-5
397.5	5.769334e-5
398.125	5.457051e-5
398.75	5.806215e-5
399.375	5.824367e-5
400	5.95563e-5
400.625	5.90822e-5
401.25	5.471194e-5
401.875	5.894923e-5
402.5	5.793598e-5
403.125	5.969237e-5
403.75	5.802903e-5
404.375	5.733906e-5
405	5.946356e-5
405.625	5.730493e-5
406.25	5.939382e-5
406.875	5.877331e-5
407.5	5.657435e-5
408.125	6.01192e-5
408.75	5.616544e-5
409.375	6.065246e-5
410	5.813352e-5
410.625	5.767163e-5
411.25	5.817825e-5
411.875	5.878948e-5
412.5	5.877043e-5
413.125	5.815492e-5
413.75	5.834112e-5
414.375	5.82263e-5
415	5.671574e-5
415.625	5.673091e-5
416.25	5.821798e-5
416.875	5.583301e-5
417.5	5.755479e-5
418.125	5.699575e-5
418.75	5.820017e-5
419.375	5.945329e-5
420	5.692047e-5
420.625	5.757664e-5
421.25	5.628478e-5
421.875	5.709336e-5
422.5	5.819273e-5
423.125	5.44114e-5
423.75	5.807973e-5
424.375	5.478989e-5
425	5.805121e-5
425.625	5.8764e-5
426.25	5.803163e-5
426.875	5.781916e-5
427.5	5.510212e-5
428.125	5.643535e-5
428.75	5.7677e-5
429.375	5.60461e-5
430	5.743311e-5
430.625	5.475431e-5
431.25	5.753158e-5
431.875	5.872972e-5
432.5	5.8575e-5
433.125	5.913138e-5
433.75	5.547861e-5
434.375	5.793026e-5
435	5.779848e-5
435.625	5.724535e-5
436.25	5.918533e-5
436.875	5.775518e-5
437.5	5.831285e-5
438.125	6.025153e-5
438.75	5.942755e-5
439.375	6.055065e-5
440	5.934218e-5
440.625	5.908905e-5
441.25	6.190337e-5
441.875	6.041085e-5
442.5	6.166055e-5
443.125	6.029846e-5
443.75	6.335027e-5
444.375	6.307228e-5
445	6.215224e-5
445.625	6.253846e-5
446.25	6.280652e-5
446.875	6.255442e-5
447.5	6.529704e-5
448.125	6.092664e-5
448.75	6.372834e-5
449.375	6.315231e-5
450	6.556537e-5
450.625	6.63439e-5
451.25	6.430761e-5
451.875	6.617365e-5
452.5	6.448931e-5
453.125	6.43954e-5
453.75	6.608375e-5
454.375	6.329149e-5
455	6.373099e-5
455.625	6.303847e-5
456.25	6.542177e-5
456.875	6.773654e-5
457.5	6.403869e-5
458.125	6.806901e-5
458.75	6.39553e-5
459.375	6.665428e-5
460	6.451358e-5
460.625	6.348975e-5
461.25	6.462139e-5
461.875	6.413639e-5
462.5	6.414164e-5
463.125	6.452696e-5
463.75	6.391444e-5
464.375	6.657009e-5
465	6.323135e-5
465.625	6.475057e-5
466.25	6.499629e-5
466.875	6.317397e-5
467.5	6.286907e-5
468.125	6.413711e-5
468.75	6.31312e-5
469.375	6.459755e-5
470	6.158341e-5
470.625	6.267198e-5
471.25	6.317907e-5
471.875	6.164996e-5
472.5	6.488997e-5
473.125	6.111499e-5
473.75	6.572901e-5
474.375	6.329989e-5
475	6.346615e-5
475.625	6.411006e-5
476.25	6.183359e-5
476.875	6.288313e-5
477.5	6.001272e-5
478.125	6.203848e-5
478.75	6.543461e-5
479.375	6.301628e-5
480	6.532498e-5
480.625	6.364533e-5
481.25	6.419208e-5
481.875	6.661176e-5
482.5	6.253011e-5
483.125	6.49709e-5
483.75	6.198895e-5
484.375	6.362553e-5
485	6.47259e-5
485.625	6.599037e-5
486.25	6.631506e-5
486.875	6.297756e-5
487.5	6.365237e-5
488.125	6.562823e-5
488.75	6.474306e-5
489.375	6.695154e-5
490	6.218832e-5
490.625	6.405147e-5
491.25	6.56089e-5
491.875	6.450513e-5
492.5	6.54523e-5
493.125	6.446094e-5
493.75	6.406982e-5
494.375	6.399088e-5
495	6.389216e-5
495.625	6.577456e-5
496.25	6.498428e-5
496.875	6.343046e-5
497.5	6.602781e-5
498.125	6.265203e-5
498.75	6.636689e-5
499.375	6.515863e-5
500	6.433761e-5
500.625	6.60461e-5
501.25	6.492671e-5
501.875	6.644441e-5
502.5	6.558146e-5
503.125	6.562197e-5
503.75	6.772611e-5
504.375	6.351797e-5
505	6.75585e-5
505.625	6.422056e-5
506.25	6.559439e-5
506.875	6.677285e-5
507.5	6.36533e-5
508.125	6.767222e-5
508.75	6.526338e-5
509.375	6.459284e-5
510	6.564195e-5
510.625	6.637217e-5
511.25	6.775068e-5
511.875	6.50909e-5
512.5	6.513139e-5
513.125	6.602892e-5
513.75	6.584838e-5
514.375	6.691535e-5
515	6.373574e-5
515.625	6.359616e-5
516.25	6.485071e-5
516.875	6.503806e-5
517.5	6.753597e-5
518.125	6.653633e-5
518.75	6.771918e-5
519.375	6.77592e-5
520	6.455235e-5
520.625	6.632796e-5
521.25	6.636083e-5
521.875	6.38073e-5
522.5	6.561763e-5
523.125	6.365148e-5
523.75	6.585706e-5
524.375	6.697397e-5
525	6.668548e-5
525.625	6.725106e-5
526.25	6.432125e-5
526.875	6.579422e-5
527.5	6.404489e-5
528.125	6.403348e-5
528.75	6.608907e-5
529.375	6.262765e-5
530	6.508478e-5
530.625	6.455014e-5
531.25	6.443089e-5
531.875	6.499908e-5
532.5	6.282533e-5
533.125	6.491764e-5
533.75	6.322412e-5
534.375	6.210081e-5
535	6.474596e-5
535.625	6.261406e-5
536.25	6.484143e-5
536.875	6.2098e-5
537.5	6.174669e-5
538.125	6.374619e-5
538.75	6.111553e-5
539.375	6.219083e-5
540	6.053505e-5
540.625	6.229087e-5
541.25	6.235339e-5
541.875	6.07745e-5
542.5	6.185896e-5
543.125	6.144323e-5
543.75	5.998248e-5
544.375	6.017771e-5
545	5.786948e-5
545.625	5.939945e-5
546.25	5.972505e-5
546.875	5.907761e-5
547.5	5.957015e-5
548.125	5.880224e-5
548.75	5.729957e-5
549.375	5.899588e-5
550	5.646558e-5
550.625	6.028763e-5
551.25	5.644606e-5
551.875	5.844194e-5
552.5	5.811603e-5
553.125	5.728526e-5
553.75	5.942666e-5
554.375	5.577654e-5
555	5.632503e-5
555.625	5.701069e-5
556.25	5.619032e-5
556.875	5.856814e-5
557.5	5.648737e-5
558.125	5.866061e-5
558.75	5.779978e-5
559.375	5.740797e-5
560	5.958913e-5
560.625	5.532666e-5
561.25	5.782237e-5
561.875	5.531523e-5
562.5	5.70963e-5
563.125	5.835723e-5
563.75	5.598137e-5
564.375	5.655248e-5
565	5.689391e-5
565.625	5.63599e-5
566.25	5.892705e-5
566.875	5.520006e-5
567.5	5.573937e-5
568.125	5.552889e-5
568.75	5.542603e-5
569.375	5.6755e-5
570	5.584768e-5
570.625	5.738743e-5
571.25	5.50128e-5
571.875	5.480893e-5
572.5	5.643765e-5
573.125	5.459606e-5
573.75	5.43922e-5
574.375	5.542042e-5
575	5.431028e-5
575.625	5.821176e-5
576.25	5.469374e-5
576.875	5.556265e-5
577.5	5.706584e-5
578.125	5.546719e-5
578.75	5.736357e-5
579.375	5.355341e-5
580	5.523047e-5
580.625	5.634769e-5
581.25	5.579542e-5
581.875	5.721929e-5
582.5	5.589462e-5
583.125	5.697166e-5
583.75	5.66439e-5
584.375	5.421482e-5
585	5.771649e-5
585.625	5.401676e-5
586.25	5.803672e-5
586.875	5.482589e-5
587.5	5.694484e-5
588.125	5.854839e-5
588.75	5.633535e-5
589.375	5.722196e-5
590	5.707576e-5
590.625	5.493539e-5
591.25	5.771498e-5
591.875	5.537286e-5
592.5	5.788547e-5
593.125	5.702608e-5
593.75	5.756378e-5
594.375	5.939008e-5
595	5.825397e-5
595.625	5.869373e-5
596.25	5.649125e-5
596.875	5.739785e-5
597.5	5.888146e-5
598.125	5.820261e-5
598.75	5.709147e-5
599.375	5.874907e-5
600	5.703093e-5
600.625	6.063833e-5
601.25	5.569726e-5
601.875	5.881281e-5
602.5	5.866171e-5
603.125	5.793474e-5
603.75	5.936079e-5
604.375	5.748407e-5
605	5.791503e-5
605.625	5.787133e-5
606.25	5.546184e-5
606.875	5.959287e-5
607.5	5.72355e-5
608.125	5.827342e-5
608.75	5.719786e-5
609.375	5.648672e-5
610	6.006548e-5
610.625	5.720398e-5
611.25	5.724044e-5
611.875	5.593317e-5
612.5	5.756512e-5
613.125	5.976141e-5
613.75	5.73369e-5
614.375	5.725201e-5
615	5.661249e-5
615.625	5.518972e-5
616.25	5.810663e-5
616.875	5.476274e-5
617.5	5.583792e-5
618.125	5.586516e-5
618.75	5.665761e-5
619.375	5.850277e-5
620	5.574345e-5
620.625	5.568031e-5
621.25	5.338338e-5
621.875	5.4263e-5
622.5	5.609612e-5
623.125	5.438774e-5
623.75	5.258967e-5
624.375	5.372149e-5
625	5.395991e-5
625.625	5.597753e-5
626.25	5.444204e-5
626.875	5.457065e-5
627.5	5.380374e-5
628.125	5.291915e-5
628.75	5.489206e-5
629.375	5.426757e-5
630	5.336134e-5
630.625	5.442776e-5
631.25	5.144374e-5
631.875	5.645813e-5
632.5	5.501033e-5
633.125	5.551978e-5
633.75	5.492964e-5
634.375	5.215839e-5
635	5.682101e-5
635.625	5.362833e-5
636.25	5.563859e-5
636.875	5.479411e-5
637.5	5.414757e-5
638.125	5.598597e-5
638.75	5.529836e-5
639.375	5.564492e-5
640	5.623521e-5
640.625	5.446688e-5
641.25	5.570499e-5
641.875	5.463676e-5
642.5	5.72626e-5
643.125	5.527515e-5
643.75	5.407773e-5
644.375	5.619755e-5
645	5.474372e-5
645.625	5.594471e-5
646.25	5.660867e-5
646.875	5.471641e-5
647.5	5.751164e-5
648.125	5.639324e-5
648.75	5.477781e-5
649.375	5.537047e-5
650	5.479031e-5
650.625	5.539788e-5
651.25	5.521071e-5
651.875	5.660201e-5
652.5	5.734139e-5
653.125	5.368144e-5
653.75	5.557677e-5
654.375	5.531742e-5
655	5.565166e-5
655.625	5.607107e-5
656.25	5.271048e-5
656.875	5.609774e-5
657.5	5.491449e-5
658.125	5.559492e-5
658.75	5.551264e-5
659.375	5.231002e-5
660	5.413632e-5
660.625	5.262122e-5
661.25	5.408244e-5
661.875	5.580184e-5
662.5	5.316891e-5
663.125	5.551244e-5
663.75	5.366687e-5
664.375	5.462716e-5
665	5.421328e-5
665.625	5.055942e-5
666.25	5.316683e-5
666.875	5.241676e-5
667.5	5.414838e-5
668.125	5.365043e-5
668.75	5.308368e-5
669.375	5.626411e-5
670	5.40832e-5
670.625	5.413522e-5
671.25	5.405144e-5
671.875	5.281136e-5
672.5	5.499942e-5
673.125	5.258802e-5
673.75	5.35915e-5
674.375	5.449994e-5
675	5.398078e-5
675.625	5.571355e-5
676.25	5.487474e-5
676.875	5.383275e-5
677.5	5.531689e-5
678.125	5.296614e-5
678.75	5.611582e-5
679.375	5.594653e-5
680	5.510525e-5
680.625	5.582166e-5
681.25	5.405208e-5
681.875	5.715744e-5
682.5	5.464324e-5
683.125	5.444846e-5
683.75	5.544889e-5
684.375	5.325631e-5
685	5.774585e-5
685.625	5.643057e-5
686.25	5.644133e-5
686.875	5.853866e-5
687.5	5.515273e-5
688.125	5.859446e-5
688.75	5.495954e-5
689.375	5.765316e-5
690	5.605362e-5
690.625	5.581844e-5
691.25	5.752367e-5
691.875	5.685911e-5
692.5	5.630169e-5
693.125	5.709046e-5
693.75	5.586984e-5
694.375	5.841265e-5
695	5.652775e-5
695.625	5.737539e-5
696.25	5.856548e-5
696.875	5.672273e-5
697.5	5.869108e-5
698.125	5.511841e-5
698.75	5.601229e-5
699.375	5.719144e-5
700	5.621112e-5
700.625	5.758589e-5
701.25	5.637852e-5
701.875	5.734248e-5
702.5	5.862068e-5
703.125	5.65007e-5
703.75	5.883868e-5
704.375	5.61951e-5
705	5.675827e-5
705.625	5.779068e-5
706.25	5.70069e-5
706.875	5.886559e-5
707.5	5.805594e-5
708.125	5.745964e-5
708.75	5.975145e-5
709.375	5.698004e-5
710	5.837907e-5
710.625	5.78084e-5
711.25	5.805075e-5
711.875	6.093792e-5
712.5	5.693249e-5
713.125	6.023932e-5
713.75	5.756925e-5
714.375	6.080188e-5
715	6.025497e-5
715.625	5.786545e-5
716.25	6.017253e-5
716.875	5.857262e-5
717.5	5.903958e-5
718.125	6.029927e-5
718.75	5.917188e-5
719.375	6.131394e-5
720	5.861084e-5
720.625	5.937912e-5
721.25	6.150207e-5
721.875	6.044055e-5
722.5	6.101546e-5
723.125	5.860739e-5
723.75	6.110983e-5
724.375	5.982925e-5
725	6.093531e-5
725.625	6.084772e-5
726.25	6.125397e-5
726.875	6.005482e-5
727.5	6.226824e-5
728.125	5.905418e-5
728.75	6.314768e-5
729.375	6.096071e-5
730	5.990555e-5
730.625	6.042631e-5
731.25	5.995561e-5
731.875	6.199287e-5
732.5	6.203023e-5
733.125	6.066466e-5
733.75	6.182602e-5
734.375	5.901775e-5
735	6.133032e-5
735.625	6.067718e-5
736.25	5.952808e-5
736.875	6.116836e-5
737.5	5.785084e-5
738.125	6.238562e-5
738.75	6.091939e-5
739.375	6.141763e-5
740	5.99892e-5
740.625	5.944769e-5
741.25	6.12633e-5
741.875	5.982093e-5
742.5	5.781177e-5
743.125	5.965852e-5
743.75	5.867006e-5
744.375	6.267725e-5
745	5.997363e-5
745.625	5.99611e-5
746.25	6.143731e-5
746.875	6.052205e-5
747.5	6.121586e-5
748.125	5.978591e-5
748.75	5.886904e-5
749.375	5.948012e-5
750	5.939069e-5
750.625	6.203389e-5
751.25	6.159095e-5
751.875	6.040166e-5
752.5	6.152721e-5
753.125	5.991396e-5
753.75	6.316057e-5
754.375	6.105075e-5
755	5.989679e-5
755.625	6.121685e-5
756.25	6.151544e-5
756.875	6.340246e-5
757.5	6.282586e-5
758.125	6.135745e-5
758.75	6.264415e-5
759.375	6.077304e-5
760	6.216715e-5
760.625	6.276382e-5
761.25	6.080595e-5
761.875	6.337596e-5
762.5	6.067993e-5
763.125	6.556021e-5
763.75	6.401574e-5
764.375	6.335148e-5
765	6.379112e-5
765.625	6.079966e-5
766.25	6.379947e-5
766.875	6.227619e-5
767.5	6.060945e-5
768.125	6.288199e-5
768.75	6.209249e-5
769.375	6.515269e-5
770	6.315771e-5
770.625	6.399e-5
771.25	6.412975e-5
771.875	6.180797e-5
772.5	6.292218e-5
773.125	6.151415e-5
773.75	6.097644e-5
774.375	6.175455e-5
775	6.134578e-5
775.625	6.408804e-5
776.25	6.441893e-5
776.875	6.147035e-5
777.5	6.260686e-5
778.125	6.033185e-5
778.75	6.232019e-5
779.375	6.156279e-5
780	6.028322e-5
780.625	6.259092e-5
781.25	6.142088e-5
781.875	6.281456e-5
782.5	6.237184e-5
783.125	6.165214e-5
783.75	6.325444e-5
784.375	5.883492e-5
785	6.248593e-5
785.625	6.254082e-5
786.25	6.175267e-5
786.875	6.21185e-5
787.5	5.976238e-5
788.125	6.372472e-5
788.75	6.419361e-5
789.375	6.20788e-5
790	6.34888e-5
790.625	6.068863e-5
791.25	6.343773e-5
791.875	6.265778e-5
792.5	6.162898e-5
793.125	6.302328e-5
793.75	6.026874e-5
794.375	6.366901e-5
795	6.305637e-5
795.625	6.374301e-5
796.25	6.394847e-5
796.875	6.098647e-5
797.5	6.316311e-5
798.125	6.157819e-5
798.75	6.215698e-5
799.375	6.321312e-5
800	6.135346e-5
800.625	6.513159e-5
801.25	6.387337e-5
801.875	6.28185e-5
802.5	6.317449e-5
803.125	6.177258e-5
803.75	6.239625e-5
804.375	6.226994e-5
805	6.172993e-5
805.625	6.353337e-5
806.25	6.231867e-5
806.875	6.43575e-5
807.5	6.454176e-5
808.125	6.332197e-5
808.75	6.414822e-5
809.375	6.026493e-5
810	6.191913e-5
810.625	6.195886e-5
811.25	6.060944e-5
811.875	6.192828e-5
812.5	6.067737e-5
813.125	6.357415e-5
813.75	6.434356e-5
814.375	6.112e-5
815	6.371445e-5
815.625	5.891018e-5
816.25	6.170391e-5
816.875	5.952052e-5
817.5	6.03832e-5
818.125	6.208893e-5
818.75	6.013603e-5
819.375	6.291582e-5
820	6.195043e-5
820.625	6.171365e-5
821.25	6.08115e-5
821.875	5.829634e-5
822.5	6.011928e-5
823.125	6.098312e-5
823.75	6.141838e-5
824.375	6.252951e-5
825	6.129924e-5
825.625	6.376731e-5
826.25	6.181311e-5
826.875	6.121471e-5
827.5	6.088123e-5
828.125	5.98636e-5
828.75	6.118365e-5
829.375	6.29674e-5
830	6.20161e-5
830.625	6.506763e-5
831.25	6.183969e-5
831.875	6.338129e-5
832.5	6.273512e-5
833.125	6.26655e-5
833.75	6.297036e-5
834.375	6.031518e-5
835	6.310773e-5
835.625	6.479741e-5
836.25	6.402141e-5
836.875	6.476698e-5
837.5	6.248411e-5
838.125	6.362329e-5
838.75	6.364979e-5
839.375	6.170849e-5
840	6.467228e-5
840.625	6.1708e-5
841.25	6.453836e-5
841.875	6.395632e-5
842.5	6.46335e-5
843.125	6.535969e-5
843.75	6.195696e-5
844.375	6.379358e-5
845	6.442872e-5
845.625	6.299642e-5
846.25	6.437072e-5
846.875	6.183977e-5
847.5	6.482661e-5
848.125	6.478247e-5
848.75	6.35289e-5
849.375	6.455374e-5
850	6.226359e-5
850.625	6.42532e-5
851.25	6.192803e-5
851.875	6.402547e-5
852.5	6.374693e-5
853.125	6.314533e-5
853.75	6.197111e-5
854.375	6.324676e-5
855	6.253306e-5
855.625	6.45062e-5
856.25	6.16042e-5
856.875	6.300106e-5
857.5	6.399988e-5
858.125	6.25799e-5
858.75	6.38272e-5
859.375	6.06771e-5
860	6.19694e-5
860.625	6.22408e-5
861.25	6.111369e-5
861.875	6.324871e-5
862.5	6.253037e-5
863.125	6.299478e-5
863.75	6.409758e-5
864.375	6.086703e-5
865	6.490418e-5
865.625	6.085977e-5
866.25	6.330708e-5
866.875	6.072817e-5
867.5	6.160478e-5
868.125	6.315337e-5
868.75	6.171812e-5
869.375	6.281849e-5
870	6.258293e-5
870.625	5.990072e-5
871.25	6.28844e-5
871.875	6.060462e-5
872.5	6.304816e-5
873.125	6.147723e-5
873.75	6.04608e-5
874.375	6.330152e-5
875	6.156037e-5
875.625	6.285065e-5
876.25	6.127387e-5
876.875	6.107624e-5
877.5	6.174095e-5
878.125	6.09738e-5
878.75	6.029684e-5
879.375	6.190245e-5
880	6.142061e-5
880.625	6.331962e-5
881.25	6.05298e-5
881.875	6.338329e-5
882.5	6.255563e-5
883.125	6.135618e-5
883.75	6.266295e-5
884.375	6.047776e-5
885	6.164984e-5
885.625	6.228535e-5
886.25	5.970978e-5
886.875	6.192451e-5
887.5	6.098831e-5
888.125	6.096028e-5
888.75	6.163826e-5
889.375	5.987537e-5
890	6.306193e-5
890.625	5.931262e-5
891.25	6.101027e-5
891.875	6.115979e-5
892.5	5.9485e-5
893.125	6.151238e-5
893.75	5.829933e-5
894.375	6.035489e-5
895	6.074532e-5
895.625	5.908035e-5
896.25	6.09453e-5
896.875	5.842371e-5
897.5	6.157078e-5
898.125	6.039766e-5
898.75	5.850239e-5
899.375	6.05246e-5
900	5.825712e-5
900.625	6.134784e-5
901.25	5.977084e-5
901.875	6.00421e-5
902.5	6.024243e-5
903.125	5.862963e-5
903.75	5.976022e-5
904.375	6.132966e-5
905	6.022621e-5
905.625	6.002652e-5
906.25	5.788158e-5
906.875	6.032419e-5
907.5	6.116847e-5
908.125	5.933501e-5
908.75	6.081823e-5
909.375	5.9386e-5
910	5.986811e-5
910.625	6.109927e-5
911.25	5.890803e-5
911.875	6.1634e-5
912.5	5.823809e-5
913.125	6.004656e-5
913.75	6.079367e-5
914.375	5.969518e-5
915	6.19679e-5
915.625	5.853712e-5
916.25	6.036126e-5
916.875	6.064052e-5
917.5	5.858491e-5
918.125	5.982649e-5
918.75	5.882096e-5
919.375	6.122614e-5
920	6.093031e-5
920.625	5.829169e-5
921.25	6.065601e-5
921.875	5.886854e-5
922.5	6.109682e-5
923.125	5.942451e-5
923.75	5.726348e-5
924.375	5.923475e-5
925	5.828838e-5
925.625	6.064323e-5
926.25	5.896655e-5
926.875	5.760149e-5
927.5	5.94155e-5
928.125	5.694767e-5
928.75	5.957003e-5
929.375	5.874284e-5
930	5.722762e-5
930.625	5.735439e-5
931.25	5.652054e-5
931.875	5.839771e-5
932.5	5.881585e-5
933.125	5.684143e-5
933.75	5.739881e-5
934.375	5.682331e-5
935	5.717391e-5
935.625	5.728931e-5
936.25	5.59587e-5
936.875	5.781807e-5
937.5	5.581956e-5
938.125	5.743298e-5
938.75	5.837017e-5
939.375	5.673788e-5
940	5.765654e-5
940.625	5.528627e-5
941.25	5.610742e-5
941.875	5.780628e-5
942.5	5.447565e-5
943.125	5.763019e-5
943.75	5.575033e-5
944.375	5.786568e-5
945	5.790002e-5
945.625	5.547784e-5
946.25	5.775006e-5
946.875	5.531385e-5
947.5	5.657793e-5
948.125	5.573817e-5
948.75	5.563075e-5
949.375	5.710067e-5
950	5.541569e-5
950.625	5.713585e-5
951.25	5.773457e-5
951.875	5.684069e-5
952.5	5.846978e-5
953.125	5.448982e-5
953.75	5.731103e-5
954.375	5.703992e-5
955	5.651455e-5
955.625	5.580236e-5
956.25	5.553952e-5
956.875	5.73485e-5
957.5	6.002491e-5
958.125	5.810141e-5
958.75	5.85901e-5
959.375	5.636894e-5
960	5.59986e-5
960.625	5.745703e-5
961.25	5.668885e-5
961.875	5.74974e-5
962.5	5.47196e-5
963.125	5.661722e-5
963.75	5.86848e-5
964.375	5.82489e-5
965	5.816959e-5
965.625	5.502803e-5
966.25	5.471467e-5
966.875	5.811257e-5
967.5	5.424734e-5
968.125	5.692893e-5
968.75	5.423594e-5
969.375	5.62757e-5
970	5.63605e-5
970.625	5.544926e-5
971.25	5.686529e-5
971.875	5.425265e-5
972.5	5.370131e-5
973.125	5.556625e-5
973.75	5.409114e-5
974.375	5.617791e-5
975	5.32592e-5
975.625	5.462696e-5
976.25	5.657463e-5
976.875	5.376655e-5
977.5	5.564561e-5
978.125	5.179821e-5
978.75	5.481339e-5
979.375	5.388165e-5
980	5.346501e-5
980.625	5.315874e-5
981.25	5.245048e-5
981.875	5.399575e-5
982.5	5.476239e-5
983.125	5.330113e-5
983.75	5.424078e-5
984.375	5.208016e-5
985	5.230266e-5
985.625	5.517679e-5
986.25	5.313782e-5
986.875	5.381942e-5
987.5	5.14624e-5
988.125	5.25403e-5
988.75	5.445204e-5
989.375	5.344432e-5
990	5.353945e-5
990.625	5.285787e-5
991.25	5.281253e-5
991.875	5.601549e-5
992.5	5.208891e-5
993.125	5.614973e-5
993.75	5.278303e-5
994.375	5.45883e-5
995	5.430837e-5
995.625	5.302796e-5
996.25	5.600113e-5
996.875	5.352932e-5
997.5	5.364385e-5
998.125	5.42202e-5
998.75	5.267358e-5
999.375	5.526516e-5
1000	5.306295e-5
