Source File Name:	Analyzer
Signal:	FFT - Vib Velocity - Magnitude

Frequency	Magnitude
[ Hz ]	[ m/s ]
20	0.00127783
20.625	0.001059409
21.25	0.0009309298
21.875	0.0008458043
22.5	0.0007682845
23.125	0.0007034399
23.75	0.0006339969
24.375	0.0005972358
25	0.0005476566
25.625	0.0005111917
26.25	0.0004887154
26.875	0.0004668797
27.5	0.0004589432
28.125	0.000460269
28.75	0.0004728606
29.375	0.0004851704
30	0.0005008901
30.625	0.0005301313
31.25	0.0005466708
31.875	0.0005708963
32.5	0.0005876422
33.125	0.0006077688
33.75	0.0006060576
34.375	0.0006055728
35	0.0005929793
35.625	0.0005721256
36.25	0.0005505743
36.875	0.0005357023
37.5	0.0005150089
38.125	0.0005006548
38.75	0.0004846528
39.375	0.0004696639
40	0.0004563428
40.625	0.0004489578
41.25	0.0004439585
41.875	0.0004289306
42.5	0.0004239158
43.125	0.0004238435
43.75	0.0004164103
44.375	0.0004155218
45	0.0004071911
45.625	0.0004100354
46.25	0.0003972066
46.875	0.0003936779
47.5	0.0003904723
48.125	0.0003891844
48.75	0.000379152
49.375	0.000370145
50	0.000364556
50.625	0.0003597736
51.25	0.0003489244
51.875	0.0003429716
52.5	0.0003407851
53.125	0.0003302313
53.75	0.0003272469
54.375	0.000316687
55	0.0003068736
55.625	0.0002948153
56.25	0.0002901338
56.875	0.0002837004
57.5	0.0002881778
58.125	0.0002707731
58.75	0.000270318
59.375	0.0002639327
60	0.0002511815
60.625	0.0002462271
61.25	0.0002493884
61.875	0.0002407983
62.5	0.0002321528
63.125	0.0002302081
63.75	0.0002225929
64.375	0.0002185476
65	0.0002100158
65.625	0.0002054833
66.25	0.0001959563
66.875	0.0001912118
67.5	0.0001889864
68.125	0.0001780285
68.75	0.0001751136
69.375	0.0001673304
70	0.0001608464
70.625	0.000150096
71.25	0.0001472782
71.875	0.0001432347
72.5	0.0001309788
73.125	0.0001259767
73.75	0.0001189479
74.375	0.0001160829
75	0.0001061885
75.625	0.000105038
76.25	0.0001027806
76.875	9.721785e-5
77.5	9.16566e-5
78.125	9.05527e-5
78.75	8.230702e-5
79.375	7.753046e-5
80	7.174491e-5
80.625	6.487471e-5
81.25	6.220525e-5
81.875	5.150493e-5
82.5	5.556478e-5
83.125	4.782285e-5
83.75	5.089322e-5
84.375	4.236806e-5
85	4.632562e-5
85.625	4.715738e-5
86.25	4.612734e-5
86.875	5.153817e-5
87.5	4.849185e-5
88.125	5.309431e-5
88.75	4.886699e-5
89.375	5.634803e-5
90	5.157187e-5
90.625	5.828102e-5
91.25	6.060666e-5
91.875	6.453304e-5
92.5	6.630761e-5
93.125	7.406946e-5
93.75	8.321848e-5
94.375	8.807163e-5
95	9.085831e-5
95.625	9.467238e-5
96.25	0.0001013527
96.875	0.000101501
97.5	0.0001098981
98.125	0.0001098561
98.75	0.0001177055
99.375	0.0001197119
100	0.0001236363
100.625	0.0001367373
101.25	0.0001371023
101.875	0.0001451182
102.5	0.0001435783
103.125	0.0001519862
103.75	0.0001531389
104.375	0.0001559869
105	0.0001588944
105.625	0.0001625221
106.25	0.0001623076
106.875	0.0001670925
107.5	0.0001739311
108.125	0.0001791542
108.75	0.0001801168
109.375	0.0001863876
110	0.0001933899
110.625	0.0001957358
111.25	0.0002054704
111.875	0.0002065384
112.5	0.000207054
113.125	0.0002083256
113.75	0.0002124195
114.375	0.0002196855
115	0.0002182608
115.625	0.0002279769
116.25	0.000222057
116.875	0.0002285065
117.5	0.000232455
118.125	0.0002336497
118.75	0.0002318436
119.375	0.0002329491
120	0.0002375916
120.625	0.0002381735
121.25	0.0002374893
121.875	0.0002437788
122.5	0.000246261
123.125	0.0002444139
123.75	0.0002502711
124.375	0.000253331
125	0.000257691
125.625	0.0002561002
126.25	0.0002601446
126.875	0.0002655878
127.5	0.000261847
128.125	0.0002651179
128.75	0.0002627207
129.375	0.0002653028
130	0.0002584256
130.625	0.0002587757
131.25	0.0002574275
131.875	0.0002552243
132.5	0.0002561529
133.125	0.0002561255
133.75	0.000257879
134.375	0.0002537992
135	0.000255978
135.625	0.0002588568
136.25	0.0002598914
136.875	0.0002534029
137.5	0.0002527185
138.125	0.0002492707
138.75	0.00024977
139.375	0.0002431775
140	0.000239707
140.625	0.0002379864
141.25	0.0002327583
141.875	0.0002375255
142.5	0.0002303927
143.125	0.0002318091
143.75	0.0002293633
144.375	0.0002236426
145	0.0002178985
145.625	0.000209838
146.25	0.0002050753
146.875	0.0001952798
147.5	0.0001807197
148.125	0.00017498
148.75	0.0001649313
149.375	0.000154205
150	0.0001464937
150.625	0.0001398995
151.25	0.0001332385
151.875	0.0001184078
152.5	0.000117124
153.125	0.0001075138
153.75	0.0001037179
154.375	9.061029e-5
155	9.34303e-5
155.625	9.301156e-5
156.25	9.982815e-5
156.875	0.0001068077
157.5	0.0001158472
158.125	0.0001346413
158.75	0.0001414561
159.375	0.0001528814
160	0.0001574339
160.625	0.0001649334
161.25	0.0001653946
161.875	0.0001661415
162.5	0.0001671956
163.125	0.0001706401
163.75	0.0001779349
164.375	0.0001999575
165	0.0002192719
165.625	0.0002529115
166.25	0.0002873511
166.875	0.0003292178
167.5	0.0003705244
168.125	0.0004142584
168.75	0.000462511
169.375	0.0005012123
170	0.0005409778
170.625	0.0005727309
171.25	0.0006009153
171.875	0.0006197114
172.5	0.0006376775
173.125	0.0006434822
173.75	0.0006481098
174.375	0.0006460665
175	0.0006407321
175.625	0.0006414364
176.25	0.0006356233
176.875	0.0006304428
177.5	0.0006178665
178.125	0.0006171138
178.75	0.0006041951
179.375	0.0006034113
180	0.000594852
180.625	0.000596677
181.25	0.0005858567
181.875	0.0005854829
182.5	0.0005890247
183.125	0.0005851361
183.75	0.0005889403
184.375	0.0005805349
185	0.0005878992
185.625	0.0005792417
186.25	0.0005824525
186.875	0.0005801081
187.5	0.0005755808
188.125	0.0005737133
188.75	0.0005725021
189.375	0.0005761751
190	0.0005715641
190.625	0.0005766866
191.25	0.0005690862
191.875	0.0005692019
192.5	0.0005626508
193.125	0.0005674196
193.75	0.0005614771
194.375	0.0005638453
195	0.0005668534
195.625	0.0005663091
196.25	0.0005706351
196.875	0.0005714962
197.5	0.0005802654
198.125	0.0005708798
198.75	0.0005781779
199.375	0.000574362
200	0.0005795573
200.625	0.0005795914
201.25	0.0005806124
201.875	0.0005904919
202.5	0.0005877516
203.125	0.0005980968
203.75	0.0005995151
204.375	0.0006141438
205	0.0006159667
205.625	0.0006234092
206.25	0.0006300164
206.875	0.0006421688
207.5	0.0006432031
208.125	0.0006463292
208.75	0.0006465478
209.375	0.0006456956
210	0.0006442298
210.625	0.0006365374
211.25	0.0006375156
211.875	0.000626361
212.5	0.0006234317
213.125	0.0006103962
213.75	0.0005993278
214.375	0.0005861447
215	0.0005698443
215.625	0.0005586273
216.25	0.0005366789
216.875	0.0005246237
217.5	0.0005042265
218.125	0.0004877734
218.75	0.0004707045
219.375	0.0004554354
220	0.0004339982
220.625	0.0004110626
221.25	0.0003878043
221.875	0.0003685596
222.5	0.0003372653
223.125	0.0003145073
223.75	0.000287179
224.375	0.0002659263
225	0.0002389888
225.625	0.0002181792
226.25	0.0002052687
226.875	0.0001821808
227.5	0.0001654344
228.125	0.0001465872
228.75	0.0001355849
229.375	0.0001162169
230	0.0001015664
230.625	8.504189e-5
231.25	6.754942e-5
231.875	4.591021e-5
232.5	3.241697e-5
233.125	2.408088e-5
233.75	1.678071e-5
234.375	2.520921e-5
235	3.665403e-5
235.625	4.455168e-5
236.25	5.966494e-5
236.875	6.239791e-5
237.5	7.548533e-5
238.125	8.148389e-5
238.75	9.227372e-5
239.375	9.638202e-5
240	9.962921e-5
240.625	0.0001057281
241.25	0.000102601
241.875	0.0001134452
242.5	0.0001077571
243.125	0.0001169812
243.75	0.0001124751
244.375	0.0001201653
245	0.0001234376
245.625	0.0001266933
246.25	0.0001353217
246.875	0.00013668
247.5	0.0001426164
248.125	0.0001420497
248.75	0.0001479987
249.375	0.0001498248
250	0.0001569502
250.625	0.0001526381
251.25	0.0001600013
251.875	0.0001632049
252.5	0.0001652411
253.125	0.0001665348
253.75	0.0001674384
254.375	0.0001731489
255	0.0001617577
255.625	0.0001700233
256.25	0.0001672984
256.875	0.0001701454
257.5	0.0001656157
258.125	0.0001694167
258.75	0.0001728539
259.375	0.0001711778
260	0.0001815823
260.625	0.000180341
261.25	0.0001837733
261.875	0.0001791852
262.5	0.000184977
263.125	0.0001808396
263.75	0.0001811847
264.375	0.0001779659
265	0.0001788261
265.625	0.0001773992
266.25	0.000179572
266.875	0.0001837089
267.5	0.0001796968
268.125	0.0001859802
268.75	0.0001803179
269.375	0.0001845748
270	0.0001776759
270.625	0.0001792442
271.25	0.0001782236
271.875	0.0001693119
272.5	0.00017724
273.125	0.0001759431
273.75	0.0001849418
274.375	0.0001832416
275	0.0001958752
275.625	0.000197235
276.25	0.0002034531
276.875	0.0002035435
277.5	0.000210586
278.125	0.0002131012
278.75	0.0002123222
279.375	0.0002175282
280	0.0002204256
280.625	0.0002298914
281.25	0.0002286046
281.875	0.0002395834
282.5	0.0002390412
283.125	0.0002424638
283.75	0.0002428313
284.375	0.0002420435
285	0.0002433703
285.625	0.0002327856
286.25	0.0002385983
286.875	0.0002298617
287.5	0.0002351606
288.125	0.0002316821
288.75	0.0002370295
289.375	0.0002356985
290	0.0002360854
290.625	0.0002361013
291.25	0.0002370225
291.875	0.0002382448
292.5	0.0002371834
293.125	0.0002393957
293.75	0.0002356222
294.375	0.0002437929
295	0.0002394534
295.625	0.0002399437
296.25	0.0002349947
296.875	0.0002344271
297.5	0.0002367196
298.125	0.0002287547
298.75	0.0002372943
299.375	0.0002311776
300	0.0002357053
300.625	0.0002298838
301.25	0.0002398345
301.875	0.0002373176
302.5	0.0002364598
303.125	0.0002378517
303.75	0.0002378092
304.375	0.0002386497
305	0.0002350198
305.625	0.000239996
306.25	0.0002359682
306.875	0.000237775
307.5	0.0002374044
308.125	0.0002444188
308.75	0.0002393785
309.375	0.0002398885
310	0.0002399808
310.625	0.0002353824
311.25	0.0002372186
311.875	0.0002289872
312.5	0.000234807
313.125	0.0002263149
313.75	0.0002316032
314.375	0.0002276663
315	0.0002304558
315.625	0.0002336474
316.25	0.0002323777
316.875	0.000234308
317.5	0.0002321558
318.125	0.0002346703
318.75	0.0002271505
319.375	0.0002262871
320	0.0002199882
320.625	0.0002219731
321.25	0.0002155146
321.875	0.0002175595
322.5	0.0002185548
323.125	0.0002190304
323.75	0.0002208545
324.375	0.0002144163
325	0.0002187221
325.625	0.0002111785
326.25	0.0002128961
326.875	0.0002046616
327.5	0.0002064951
328.125	0.0001995502
328.75	0.0001941901
329.375	0.0001993925
330	0.000194652
330.625	0.0001951458
331.25	0.0001896872
331.875	0.0001947044
332.5	0.0001901165
333.125	0.0001881609
333.75	0.0001867112
334.375	0.0001860302
335	0.0001779751
335.625	0.0001795034
336.25	0.0001797712
336.875	0.0001756085
337.5	0.0001755816
338.125	0.0001683683
338.75	0.0001706309
339.375	0.0001612127
340	0.0001636295
340.625	0.000154868
341.25	0.0001497616
341.875	0.0001485826
342.5	0.000142821
343.125	0.0001439003
343.75	0.0001382143
344.375	0.000145329
345	0.0001413322
345.625	0.0001445908
346.25	0.0001453211
346.875	0.0001482005
347.5	0.0001447952
348.125	0.0001427226
348.75	0.0001432104
349.375	0.0001417747
350	0.0001396498
350.625	0.0001397203
351.25	0.0001414733
351.875	0.0001375951
352.5	0.0001403955
353.125	0.0001375883
353.75	0.0001407245
354.375	0.0001366612
355	0.0001353539
355.625	0.0001381157
356.25	0.0001316604
356.875	0.0001363853
357.5	0.000133584
358.125	0.0001401233
358.75	0.0001366758
359.375	0.0001374007
360	0.0001402713
360.625	0.0001412701
361.25	0.0001382658
361.875	0.0001385616
362.5	0.0001385035
363.125	0.0001396534
363.75	0.0001393537
364.375	0.0001402269
365	0.0001418255
365.625	0.0001415835
366.25	0.000146258
366.875	0.0001440289
367.5	0.0001449887
368.125	0.0001464115
368.75	0.0001459589
369.375	0.0001467621
370	0.0001421045
370.625	0.0001483176
371.25	0.0001446175
371.875	0.000148503
372.5	0.0001484172
373.125	0.0001516881
373.75	0.0001500871
374.375	0.0001481085
375	0.0001520363
375.625	0.0001517343
376.25	0.0001473531
376.875	0.0001533224
377.5	0.000155484
378.125	0.0001561151
378.75	0.0001616031
379.375	0.0001665932
380	0.0001709792
380.625	0.0001670856
381.25	0.0001707358
381.875	0.0001742649
382.5	0.0001673341
383.125	0.0001677222
383.75	0.0001620385
384.375	0.0001657152
385	0.0001637077
385.625	0.0001686665
386.25	0.0001713678
386.875	0.0001745906
387.5	0.0001789471
388.125	0.0001809821
388.75	0.000183943
389.375	0.0001856589
390	0.0001856396
390.625	0.000186689
391.25	0.0001885742
391.875	0.0001925137
392.5	0.0001943451
393.125	0.0001938913
393.75	0.0001971355
394.375	0.0001981827
395	0.0001978537
395.625	0.0002015203
396.25	0.0001994898
396.875	0.0002055357
397.5	0.0002000809
398.125	0.0002050763
398.75	0.000205625
399.375	0.0002072845
400	0.0002087726
400.625	0.0002091899
401.25	0.0002176811
401.875	0.0002178823
402.5	0.0002204617
403.125	0.0002262656
403.75	0.0002263609
404.375	0.0002233356
405	0.0002264383
405.625	0.0002282613
406.25	0.0002273428
406.875	0.0002257607
407.5	0.0002305446
408.125	0.0002350663
408.75	0.0002321469
409.375	0.0002394637
410	0.0002399282
410.625	0.0002423828
411.25	0.0002398195
411.875	0.0002427551
412.5	0.0002409984
413.125	0.0002379509
413.75	0.0002428781
414.375	0.0002392066
415	0.0002434088
415.625	0.0002424837
416.25	0.0002460652
416.875	0.0002458681
417.5	0.0002482306
418.125	0.0002517658
418.75	0.0002519934
419.375	0.0002542054
420	0.000258805
420.625	0.0002599604
421.25	0.0002582041
421.875	0.0002606035
422.5	0.0002565607
423.125	0.0002590609
423.75	0.0002562032
424.375	0.0002576218
425	0.0002549195
425.625	0.0002509548
426.25	0.0002574272
426.875	0.0002555746
427.5	0.0002590235
428.125	0.0002535542
428.75	0.0002591069
429.375	0.0002594445
430	0.0002588557
430.625	0.0002567466
431.25	0.0002587219
431.875	0.0002588229
432.5	0.0002583114
433.125	0.000261706
433.75	0.000263442
434.375	0.0002647913
435	0.0002632585
435.625	0.0002665197
436.25	0.0002642496
436.875	0.0002625357
437.5	0.0002599751
438.125	0.000257361
438.75	0.0002562767
439.375	0.0002494098
440	0.0002563792
440.625	0.0002500056
441.25	0.0002569353
441.875	0.0002552953
442.5	0.000259477
443.125	0.0002604247
443.75	0.0002604922
444.375	0.0002606946
445	0.0002574023
445.625	0.0002556842
446.25	0.0002521333
446.875	0.0002483806
447.5	0.0002455503
448.125	0.0002500673
448.75	0.0002478014
449.375	0.0002477564
450	0.0002499584
450.625	0.0002526308
451.25	0.0002527785
451.875	0.0002441456
452.5	0.0002485899
453.125	0.0002390815
453.75	0.0002386076
454.375	0.0002336822
455	0.0002385157
455.625	0.0002337876
456.25	0.0002333063
456.875	0.0002378961
457.5	0.0002349505
458.125	0.0002355977
458.75	0.0002316627
459.375	0.0002327529
460	0.000227961
460.625	0.0002296097
461.25	0.000227299
461.875	0.0002276277
462.5	0.0002251738
463.125	0.000223454
463.75	0.0002209682
464.375	0.0002173203
465	0.0002207497
465.625	0.0002113755
466.25	0.0002151869
466.875	0.0002079183
467.5	0.0002104476
468.125	0.0002075487
468.75	0.0002038919
469.375	0.0002050465
470	0.0001994358
470.625	0.0002025534
471.25	0.0001997618
471.875	0.0002029518
472.5	0.0001972045
473.125	0.0001983877
473.75	0.0001956662
474.375	0.0001986008
475	0.0001936991
475.625	0.0001926666
476.25	0.0001946405
476.875	0.0001904119
477.5	0.0001881391
478.125	0.0001824783
478.75	0.0001867226
479.375	0.0001754505
480	0.0001749261
480.625	0.0001726614
481.25	0.0001707964
481.875	0.000170279
482.5	0.0001676014
483.125	0.0001767535
483.75	0.0001674203
484.375	0.0001733541
485	0.0001702575
485.625	0.000170472
486.25	0.0001653403
486.875	0.0001663322
487.5	0.0001624284
488.125	0.0001610895
488.75	0.0001601513
489.375	0.0001608327
490	0.0001595247
490.625	0.0001536625
491.25	0.0001562587
491.875	0.0001477066
492.5	0.0001503395
493.125	0.0001445921
493.75	0.0001406004
494.375	0.0001405271
495	0.000137414
495.625	0.0001442179
496.25	0.000134658
496.875	0.0001417169
497.5	0.0001370883
498.125	0.0001384829
498.75	0.0001312282
499.375	0.0001330078
500	0.0001309808
500.625	0.0001261685
501.25	0.0001242956
501.875	0.0001245712
502.5	0.0001258164
503.125	0.0001216646
503.75	0.0001245313
504.375	0.0001212758
505	0.0001226516
505.625	0.0001150468
506.25	0.0001185654
506.875	0.000114611
507.5	0.0001061391
508.125	0.0001079967
508.75	9.90548e-5
509.375	0.0001050457
510	9.532736e-5
510.625	0.00010065
511.25	9.853904e-5
511.875	9.672969e-5
512.5	9.866216e-5
513.125	9.824594e-5
513.75	9.682289e-5
514.375	9.060826e-5
515	8.918927e-5
515.625	8.588832e-5
516.25	8.655229e-5
516.875	8.250464e-5
517.5	8.615079e-5
518.125	8.074826e-5
518.75	8.38172e-5
519.375	8.07609e-5
520	7.679661e-5
520.625	7.409977e-5
521.25	6.70468e-5
521.875	6.873238e-5
522.5	5.854507e-5
523.125	6.761436e-5
523.75	6.652889e-5
524.375	6.627593e-5
525	6.972424e-5
525.625	6.914891e-5
526.25	7.242504e-5
526.875	6.465989e-5
527.5	6.954369e-5
528.125	6.545232e-5
528.75	6.150051e-5
529.375	5.918326e-5
530	6.213249e-5
530.625	5.581807e-5
531.25	5.553328e-5
531.875	5.231663e-5
532.5	5.297865e-5
533.125	5.001766e-5
533.75	4.957246e-5
534.375	5.357199e-5
535	4.788249e-5
535.625	5.176568e-5
536.25	5.290627e-5
536.875	5.284373e-5
537.5	5.427061e-5
538.125	4.990369e-5
538.75	5.241805e-5
539.375	4.752404e-5
540	4.992088e-5
540.625	4.520798e-5
541.25	4.66969e-5
541.875	4.561945e-5
542.5	4.507255e-5
543.125	4.550859e-5
543.75	4.678719e-5
544.375	4.691462e-5
545	4.74408e-5
545.625	4.435043e-5
546.25	4.446786e-5
546.875	4.458683e-5
547.5	4.161486e-5
548.125	4.042145e-5
548.75	3.885704e-5
549.375	4.095894e-5
550	4.322909e-5
550.625	4.200183e-5
551.25	4.947738e-5
551.875	4.512918e-5
552.5	4.442337e-5
553.125	4.635721e-5
553.75	4.593296e-5
554.375	4.474325e-5
555	4.257796e-5
555.625	4.82806e-5
556.25	4.628827e-5
556.875	4.547803e-5
557.5	4.818599e-5
558.125	4.962271e-5
558.75	4.479334e-5
559.375	4.291581e-5
560	4.23187e-5
560.625	3.839162e-5
561.25	3.590775e-5
561.875	3.56227e-5
562.5	3.805661e-5
563.125	3.759253e-5
563.75	4.464446e-5
564.375	4.740231e-5
565	5.057238e-5
565.625	5.299291e-5
566.25	4.989042e-5
566.875	4.973044e-5
567.5	4.532796e-5
568.125	4.888153e-5
568.75	4.140522e-5
569.375	4.129904e-5
570	3.985284e-5
570.625	3.981781e-5
571.25	3.976791e-5
571.875	4.108081e-5
572.5	4.323704e-5
573.125	4.188499e-5
573.75	4.122012e-5
574.375	4.448994e-5
575	4.520287e-5
575.625	3.955764e-5
576.25	3.931505e-5
576.875	3.873356e-5
577.5	4.087829e-5
578.125	4.355807e-5
578.75	4.287647e-5
579.375	4.937767e-5
580	4.244982e-5
580.625	4.861439e-5
581.25	4.52238e-5
581.875	4.646984e-5
582.5	3.965121e-5
583.125	4.018636e-5
583.75	4.136347e-5
584.375	4.105228e-5
585	4.146604e-5
585.625	4.170772e-5
586.25	4.403819e-5
586.875	4.143754e-5
587.5	4.253939e-5
588.125	4.395385e-5
588.75	4.424632e-5
589.375	4.255092e-5
590	4.329341e-5
590.625	4.317857e-5
591.25	4.290952e-5
591.875	4.539184e-5
592.5	4.143939e-5
593.125	4.575881e-5
593.75	3.974417e-5
594.375	4.680419e-5
595	4.203974e-5
595.625	4.456e-5
596.25	4.778624e-5
596.875	4.616654e-5
597.5	4.77479e-5
598.125	4.750025e-5
598.75	5.064323e-5
599.375	4.666616e-5
600	4.582307e-5
600.625	4.575724e-5
601.25	4.248342e-5
601.875	3.860073e-5
602.5	4.307728e-5
603.125	4.289969e-5
603.75	4.021528e-5
604.375	4.534529e-5
605	4.825108e-5
605.625	5.323578e-5
606.25	4.95027e-5
606.875	5.818735e-5
607.5	5.4797e-5
608.125	5.440809e-5
608.75	5.14582e-5
609.375	5.342494e-5
610	5.209532e-5
610.625	4.809503e-5
611.25	5.094431e-5
611.875	4.737182e-5
612.5	5.093397e-5
613.125	5.060026e-5
613.75	5.121607e-5
614.375	5.11787e-5
615	5.099436e-5
615.625	5.191527e-5
616.25	5.242605e-5
616.875	5.211536e-5
617.5	5.210287e-5
618.125	5.2515e-5
618.75	5.193127e-5
619.375	6.065527e-5
620	5.915635e-5
620.625	6.483813e-5
621.25	6.252558e-5
621.875	6.380679e-5
622.5	6.519647e-5
623.125	6.092421e-5
623.75	6.177369e-5
624.375	5.816383e-5
625	6.067152e-5
625.625	5.626034e-5
626.25	6.13243e-5
626.875	6.383534e-5
627.5	6.264596e-5
628.125	6.209526e-5
628.75	6.584445e-5
629.375	6.589793e-5
630	6.184464e-5
630.625	6.302522e-5
631.25	6.342329e-5
631.875	6.120113e-5
632.5	6.005685e-5
633.125	6.724793e-5
633.75	6.679814e-5
634.375	6.807762e-5
635	6.902555e-5
635.625	7.068959e-5
636.25	7.189402e-5
636.875	6.745958e-5
637.5	7.478971e-5
638.125	6.78366e-5
638.75	7.18232e-5
639.375	6.988334e-5
640	7.060148e-5
640.625	7.161764e-5
641.25	7.298477e-5
641.875	7.400665e-5
642.5	7.196102e-5
643.125	7.240852e-5
643.75	7.491558e-5
644.375	7.286808e-5
645	7.011324e-5
645.625	7.199331e-5
646.25	7.092995e-5
646.875	7.325403e-5
647.5	7.554644e-5
648.125	7.742266e-5
648.75	7.970726e-5
649.375	7.757002e-5
650	8.509491e-5
650.625	8.148056e-5
651.25	8.415781e-5
651.875	7.92692e-5
652.5	8.429233e-5
653.125	8.036022e-5
653.75	7.83135e-5
654.375	8.186919e-5
655	8.168063e-5
655.625	8.090316e-5
656.25	7.749831e-5
656.875	7.932686e-5
657.5	7.989212e-5
658.125	7.746179e-5
658.75	7.844251e-5
659.375	8.11377e-5
660	8.071901e-5
660.625	8.387608e-5
661.25	8.795486e-5
661.875	8.85043e-5
662.5	8.996974e-5
663.125	8.295938e-5
663.75	8.881994e-5
664.375	8.136389e-5
665	8.478474e-5
665.625	8.307628e-5
666.25	8.304152e-5
666.875	8.368832e-5
667.5	8.313714e-5
668.125	8.767464e-5
668.75	8.450875e-5
669.375	8.437406e-5
670	8.238927e-5
670.625	8.178358e-5
671.25	8.207428e-5
671.875	8.315779e-5
672.5	8.119467e-5
673.125	7.911871e-5
673.75	8.362656e-5
674.375	8.613351e-5
675	8.651164e-5
675.625	8.685466e-5
676.25	9.360852e-5
676.875	8.677635e-5
677.5	8.925418e-5
678.125	8.631341e-5
678.75	8.788562e-5
679.375	8.086586e-5
680	7.808919e-5
680.625	8.496243e-5
681.25	7.782405e-5
681.875	8.307299e-5
682.5	8.411184e-5
683.125	8.755134e-5
683.75	8.592938e-5
684.375	8.507558e-5
685	8.590384e-5
685.625	8.316087e-5
686.25	8.006214e-5
686.875	7.80178e-5
687.5	7.710602e-5
688.125	7.741248e-5
688.75	8.188427e-5
689.375	8.023422e-5
690	8.617862e-5
690.625	8.385328e-5
691.25	8.635609e-5
691.875	8.627125e-5
692.5	8.522687e-5
693.125	8.646434e-5
693.75	7.941212e-5
694.375	8.333413e-5
695	7.673394e-5
695.625	8.124344e-5
696.25	7.711562e-5
696.875	7.75136e-5
697.5	7.706818e-5
698.125	7.537178e-5
698.75	7.715365e-5
699.375	7.510456e-5
700	7.594348e-5
700.625	7.314424e-5
701.25	6.977732e-5
701.875	7.307978e-5
702.5	7.767107e-5
703.125	7.331715e-5
703.75	7.870621e-5
704.375	8.002231e-5
705	8.013888e-5
705.625	7.983274e-5
706.25	7.706699e-5
706.875	8.279298e-5
707.5	6.954322e-5
708.125	7.358883e-5
708.75	6.883952e-5
709.375	6.95018e-5
710	6.714577e-5
710.625	6.684275e-5
711.25	6.764354e-5
711.875	6.438415e-5
712.5	6.951624e-5
713.125	6.917559e-5
713.75	6.785429e-5
714.375	6.603671e-5
715	6.710544e-5
715.625	6.697221e-5
716.25	6.812439e-5
716.875	6.814092e-5
717.5	6.78226e-5
718.125	6.550481e-5
718.75	6.386477e-5
719.375	6.468059e-5
720	5.574786e-5
720.625	6.16187e-5
721.25	5.441882e-5
721.875	5.92612e-5
722.5	5.522499e-5
723.125	5.96981e-5
723.75	6.349863e-5
724.375	5.725931e-5
725	5.978116e-5
725.625	5.553205e-5
726.25	5.456123e-5
726.875	4.990901e-5
727.5	4.807338e-5
728.125	4.796057e-5
728.75	4.479896e-5
729.375	4.468736e-5
730	5.012504e-5
730.625	5.155223e-5
731.25	4.961794e-5
731.875	5.072904e-5
732.5	4.673779e-5
733.125	4.951094e-5
733.75	4.172579e-5
734.375	4.677234e-5
735	4.022713e-5
735.625	3.9873e-5
736.25	3.815764e-5
736.875	3.922948e-5
737.5	4.282627e-5
738.125	3.608399e-5
738.75	3.932562e-5
739.375	3.458467e-5
740	3.697937e-5
740.625	3.465136e-5
741.25	3.211245e-5
741.875	3.047691e-5
742.5	2.499781e-5
743.125	2.595852e-5
743.75	2.704977e-5
744.375	2.784842e-5
745	3.033473e-5
745.625	3.361469e-5
746.25	3.062937e-5
746.875	3.682767e-5
747.5	3.393913e-5
748.125	3.630153e-5
748.75	2.773011e-5
749.375	2.995652e-5
750	2.72966e-5
750.625	2.108946e-5
751.25	2.075894e-5
751.875	2.026169e-5
752.5	2.096548e-5
753.125	1.545268e-5
753.75	1.792327e-5
754.375	2.146093e-5
755	1.89289e-5
755.625	1.898138e-5
756.25	2.080288e-5
756.875	2.035745e-5
757.5	1.867025e-5
758.125	2.19856e-5
758.75	2.542777e-5
759.375	2.468811e-5
760	2.473005e-5
760.625	2.745344e-5
761.25	2.714474e-5
761.875	2.987222e-5
762.5	2.766872e-5
763.125	3.259322e-5
763.75	2.775112e-5
764.375	3.209387e-5
765	2.981014e-5
765.625	3.293841e-5
766.25	3.571761e-5
766.875	3.512181e-5
767.5	3.592344e-5
768.125	3.580317e-5
768.75	3.863387e-5
769.375	3.98049e-5
770	4.074549e-5
770.625	4.055827e-5
771.25	4.204987e-5
771.875	4.086543e-5
772.5	4.374366e-5
773.125	4.30425e-5
773.75	4.500546e-5
774.375	4.788886e-5
775	4.44293e-5
775.625	5.098604e-5
776.25	5.278164e-5
776.875	5.77535e-5
777.5	5.298592e-5
778.125	5.903033e-5
778.75	5.903411e-5
779.375	5.915679e-5
780	6.346775e-5
780.625	6.541974e-5
781.25	6.687336e-5
781.875	6.334039e-5
782.5	7.135607e-5
783.125	7.211392e-5
783.75	6.98707e-5
784.375	6.867343e-5
785	6.99769e-5
785.625	6.686351e-5
786.25	6.768908e-5
786.875	7.111147e-5
787.5	7.394657e-5
788.125	7.65774e-5
788.75	7.780584e-5
789.375	8.595189e-5
790	8.331019e-5
790.625	8.922453e-5
791.25	8.736204e-5
791.875	8.648099e-5
792.5	8.818464e-5
793.125	8.749433e-5
793.75	9.266339e-5
794.375	9.059055e-5
795	9.610994e-5
795.625	9.452434e-5
796.25	9.639965e-5
796.875	9.656155e-5
797.5	0.000100746
798.125	9.674807e-5
798.75	9.393085e-5
799.375	9.522394e-5
800	9.779145e-5
800.625	9.992992e-5
801.25	0.0001020956
801.875	0.0001087935
802.5	0.0001090697
803.125	0.000113845
803.75	0.0001152857
804.375	0.0001194349
805	0.0001172738
805.625	0.0001135037
806.25	0.0001172887
806.875	0.0001130195
807.5	0.000117357
808.125	0.0001136373
808.75	0.0001197394
809.375	0.0001193507
810	0.0001213403
810.625	0.0001260649
811.25	0.0001297158
811.875	0.0001278208
812.5	0.000127691
813.125	0.0001272404
813.75	0.0001272238
814.375	0.0001280301
815	0.0001273917
815.625	0.0001318258
816.25	0.0001301687
816.875	0.0001336946
817.5	0.0001379676
818.125	0.0001393441
818.75	0.0001444633
819.375	0.0001416625
820	0.0001447781
820.625	0.0001405783
821.25	0.0001474708
821.875	0.0001445203
822.5	0.0001434156
823.125	0.0001440438
823.75	0.0001473231
824.375	0.0001482272
825	0.0001489608
825.625	0.0001513929
826.25	0.0001484469
826.875	0.0001456346
827.5	0.0001491128
828.125	0.0001513586
828.75	0.0001483882
829.375	0.000152141
830	0.0001551749
830.625	0.0001563647
831.25	0.0001576274
831.875	0.0001585828
832.5	0.0001639183
833.125	0.0001566005
833.75	0.0001621811
834.375	0.0001629874
835	0.0001646776
835.625	0.0001660124
836.25	0.0001647099
836.875	0.0001663788
837.5	0.000164326
838.125	0.00016442
838.75	0.0001640155
839.375	0.0001631669
840	0.0001619566
840.625	0.0001613431
841.25	0.0001618106
841.875	0.000165761
842.5	0.0001667371
843.125	0.0001691413
843.75	0.0001711777
844.375	0.0001732952
845	0.0001771635
845.625	0.0001756566
846.25	0.0001785177
846.875	0.0001741122
847.5	0.0001745034
848.125	0.000172307
848.75	0.0001716311
849.375	0.0001772864
850	0.0001731567
850.625	0.0001764096
851.25	0.0001777094
851.875	0.0001804785
852.5	0.0001790188
853.125	0.0001768472
853.75	0.000178558
854.375	0.0001733245
855	0.0001698152
855.625	0.0001763626
856.25	0.0001772288
856.875	0.0001775897
857.5	0.0001806921
858.125	0.000184289
858.75	0.0001865516
859.375	0.0001823898
860	0.0001851159
860.625	0.0001819216
861.25	0.0001757799
861.875	0.000178627
862.5	0.00017728
863.125	0.0001817073
863.75	0.0001785132
864.375	0.0001819629
865	0.0001823787
865.625	0.0001846643
866.25	0.0001879958
866.875	0.0001839456
867.5	0.0001817725
868.125	0.0001806253
868.75	0.0001795456
869.375	0.0001787753
870	0.0001756917
870.625	0.0001783645
871.25	0.0001774144
871.875	0.0001791035
872.5	0.0001847309
873.125	0.0001851156
873.75	0.0001846331
874.375	0.0001862491
875	0.000183816
875.625	0.000186411
876.25	0.0001782563
876.875	0.000182718
877.5	0.0001788084
878.125	0.0001755682
878.75	0.0001769507
879.375	0.0001764326
880	0.0001793491
880.625	0.000175022
881.25	0.0001753574
881.875	0.0001767847
882.5	0.0001730932
883.125	0.0001740557
883.75	0.0001737705
884.375	0.0001768009
885	0.0001749709
885.625	0.0001758768
886.25	0.0001788538
886.875	0.0001792424
887.5	0.0001762624
888.125	0.0001774661
888.75	0.0001725638
889.375	0.0001735359
890	0.0001705508
890.625	0.0001739139
891.25	0.0001701931
891.875	0.0001661305
892.5	0.000169847
893.125	0.0001641828
893.75	0.0001658495
894.375	0.0001622407
895	0.0001603094
895.625	0.0001602653
896.25	0.0001590994
896.875	0.0001660571
897.5	0.0001627196
898.125	0.0001648335
898.75	0.0001674886
899.375	0.0001640763
900	0.0001616096
900.625	0.0001630436
901.25	0.0001591711
901.875	0.0001544969
902.5	0.0001510682
903.125	0.0001545557
903.75	0.0001519335
904.375	0.0001488523
905	0.0001550326
905.625	0.000150115
906.25	0.0001513995
906.875	0.0001490622
907.5	0.0001533092
908.125	0.0001472843
908.75	0.0001422887
909.375	0.0001425392
910	0.0001378345
910.625	0.0001390896
911.25	0.0001360522
911.875	0.0001367639
912.5	0.0001374493
913.125	0.0001363387
913.75	0.000139687
914.375	0.0001386691
915	0.0001379088
915.625	0.0001351192
916.25	0.0001321643
916.875	0.0001311108
917.5	0.0001321709
918.125	0.0001263751
918.75	0.0001299024
919.375	0.00012297
920	0.0001272197
920.625	0.0001233665
921.25	0.0001218802
921.875	0.0001199438
922.5	0.0001133144
923.125	0.0001134413
923.75	0.0001092314
924.375	0.0001121716
925	0.0001116806
925.625	0.0001102982
926.25	0.0001138054
926.875	0.00011511
927.5	0.000115012
928.125	0.0001105779
928.75	0.0001132445
929.375	0.0001076292
930	0.0001017687
930.625	9.717186e-5
931.25	0.0001012139
931.875	9.379752e-5
932.5	9.388926e-5
933.125	9.175586e-5
933.75	9.397158e-5
934.375	9.18425e-5
935	9.052849e-5
935.625	9.355746e-5
936.25	8.48124e-5
936.875	8.766759e-5
937.5	8.549621e-5
938.125	8.602029e-5
938.75	8.43266e-5
939.375	8.194787e-5
940	8.376912e-5
940.625	7.951118e-5
941.25	8.126681e-5
941.875	7.915231e-5
942.5	7.803377e-5
943.125	7.306749e-5
943.75	7.412629e-5
944.375	6.812617e-5
945	6.976993e-5
945.625	6.712544e-5
946.25	6.518311e-5
946.875	6.36159e-5
947.5	6.252755e-5
948.125	6.700653e-5
948.75	6.025051e-5
949.375	6.287653e-5
950	5.869085e-5
950.625	5.926964e-5
951.25	5.507096e-5
951.875	5.576286e-5
952.5	5.675137e-5
953.125	5.146509e-5
953.75	5.189743e-5
954.375	5.085484e-5
955	5.222574e-5
955.625	4.82284e-5
956.25	4.799777e-5
956.875	4.565064e-5
957.5	4.527064e-5
958.125	4.343871e-5
958.75	4.521436e-5
959.375	4.537091e-5
960	3.824483e-5
960.625	4.070299e-5
961.25	3.50845e-5
961.875	3.83617e-5
962.5	2.924341e-5
963.125	3.104135e-5
963.75	3.140614e-5
964.375	3.048349e-5
965	3.49961e-5
965.625	3.76828e-5
966.25	3.705802e-5
966.875	3.737713e-5
967.5	3.70508e-5
968.125	3.518818e-5
968.75	3.258642e-5
969.375	2.909511e-5
970	2.733921e-5
970.625	2.244445e-5
971.25	2.305601e-5
971.875	2.454987e-5
972.5	2.24021e-5
973.125	2.833492e-5
973.75	2.637888e-5
974.375	2.766674e-5
975	2.843701e-5
975.625	3.147488e-5
976.25	2.889726e-5
976.875	2.28126e-5
977.5	3.065138e-5
978.125	2.907994e-5
978.75	3.010433e-5
979.375	3.464145e-5
980	3.467693e-5
980.625	3.574778e-5
981.25	3.238536e-5
981.875	3.600183e-5
982.5	3.30856e-5
983.125	2.706018e-5
983.75	2.895498e-5
984.375	2.859251e-5
985	3.179607e-5
985.625	3.472116e-5
986.25	3.810757e-5
986.875	3.823727e-5
987.5	4.216875e-5
988.125	4.079478e-5
988.75	4.53813e-5
989.375	3.982074e-5
990	4.099156e-5
990.625	3.812291e-5
991.25	4.148495e-5
991.875	4.315712e-5
992.5	4.256872e-5
993.125	4.69229e-5
993.75	4.563333e-5
994.375	4.969918e-5
995	4.827576e-5
995.625	4.932325e-5
996.25	4.952674e-5
996.875	4.811458e-5
997.5	4.920715e-5
998.125	4.654123e-5
998.75	5.181186e-5
999.375	5.115681e-5
1000	5.118627e-5
