Source File Name:	Analyzer
Signal:	FFT - Vib Velocity - Magnitude

Frequency	Magnitude
[ Hz ]	[ m/s ]
20	0.0006878175
20.625	0.0006459986
21.25	0.0006474
21.875	0.0006008099
22.5	0.0005721677
23.125	0.0005759902
23.75	0.0005656668
24.375	0.0006026471
25	0.0005836046
25.625	0.0005379439
26.25	0.0005102028
26.875	0.0005148751
27.5	0.0005135675
28.125	0.0005012217
28.75	0.0004519979
29.375	0.0004219247
30	0.0004348217
30.625	0.0004196023
31.25	0.000389435
31.875	0.0003783788
32.5	0.000379285
33.125	0.0003993094
33.75	0.0003843532
34.375	0.0003171174
35	0.0003070715
35.625	0.0003474698
36.25	0.000365606
36.875	0.0003483208
37.5	0.0003023944
38.125	0.0003022738
38.75	0.0003476329
39.375	0.0003318689
40	0.0002712995
40.625	0.0002408638
41.25	0.0002491642
41.875	0.0002754269
42.5	0.0002689626
43.125	0.0002068612
43.75	0.0001806686
44.375	0.0002067062
45	0.0002303844
45.625	0.0002427779
46.25	0.0002073952
46.875	0.0001617128
47.5	0.000167374
48.125	0.0001769767
48.75	0.0001657398
49.375	0.0001526753
50	0.0001236235
50.625	0.0001277372
51.25	0.0001555039
51.875	0.000150104
52.5	0.0001270802
53.125	0.0001026667
53.75	9.560281e-5
54.375	0.000128461
55	0.0001367476
55.625	0.0001019283
56.25	6.311118e-5
56.875	6.282559e-5
57.5	8.232008e-5
58.125	8.336802e-5
58.75	6.786879e-5
59.375	4.236523e-5
60	6.874044e-5
60.625	7.859098e-5
61.25	4.880516e-5
61.875	2.613925e-5
62.5	2.584787e-5
63.125	4.790221e-5
63.75	6.114827e-5
64.375	4.220988e-5
65	2.306692e-5
65.625	3.932343e-5
66.25	4.652315e-5
66.875	4.83924e-5
67.5	4.227532e-5
68.125	2.004012e-5
68.75	5.216678e-5
69.375	7.329711e-5
70	6.474677e-5
70.625	4.857167e-5
71.25	3.275045e-5
71.875	4.175018e-5
72.5	7.796377e-5
73.125	9.049744e-5
73.75	8.120582e-5
74.375	7.095464e-5
75	4.935553e-5
75.625	5.782821e-5
76.25	9.20012e-5
76.875	8.671307e-5
77.5	5.910106e-5
78.125	5.935362e-5
78.75	8.404425e-5
79.375	0.000108126
80	9.651979e-5
80.625	5.909994e-5
81.25	9.293962e-5
81.875	0.000131782
82.5	0.0001364486
83.125	0.000126245
83.75	0.0001023953
84.375	0.0001155458
85	0.0001585725
85.625	0.000170919
86.25	0.0001759256
86.875	0.0001848734
87.5	0.0001830253
88.125	0.0001890999
88.75	0.0001900273
89.375	0.0001842546
90	0.0002067364
90.625	0.0002167393
91.25	0.0001982808
91.875	0.0001989453
92.5	0.0002117983
93.125	0.000226274
93.75	0.0002391872
94.375	0.0002366971
95	0.0002537062
95.625	0.0002796753
96.25	0.0002730546
96.875	0.0002626161
97.5	0.0002633652
98.125	0.0002623151
98.75	0.0002820123
99.375	0.0003063283
100	0.0003148126
100.625	0.0003175427
101.25	0.0003026565
101.875	0.0003006684
102.5	0.0003409968
103.125	0.0003628939
103.75	0.0003557334
104.375	0.0003383663
105	0.0003246289
105.625	0.0003474154
106.25	0.000378561
106.875	0.0003746116
107.5	0.0003741066
108.125	0.0004007218
108.75	0.0004356447
109.375	0.0004637725
110	0.0004584393
110.625	0.0004533823
111.25	0.0004957207
111.875	0.000535808
112.5	0.0005601602
113.125	0.0005855565
113.75	0.0006050562
114.375	0.0006299405
115	0.0006662606
115.625	0.0007076674
116.25	0.0007682643
116.875	0.0008159486
117.5	0.0008277231
118.125	0.0008519053
118.75	0.000900235
119.375	0.0009509512
120	0.001003177
120.625	0.001039607
121.25	0.001071977
121.875	0.001120208
122.5	0.001156835
123.125	0.001170147
123.75	0.001174667
124.375	0.001161185
125	0.001139214
125.625	0.001120978
126.25	0.001080151
126.875	0.001022681
127.5	0.0009654737
128.125	0.0008927545
128.75	0.0008197312
129.375	0.0007724307
130	0.0007415702
130.625	0.0007164768
131.25	0.0006690978
131.875	0.0005985556
132.5	0.0005570037
133.125	0.0005512785
133.75	0.0005302503
134.375	0.0005008613
135	0.0004735167
135.625	0.0004565705
136.25	0.0004490925
136.875	0.0004232452
137.5	0.000392702
138.125	0.0003798846
138.75	0.0003640925
139.375	0.0003456993
140	0.0003331181
140.625	0.000309124
141.25	0.0002824133
141.875	0.0002617509
142.5	0.0002466687
143.125	0.0002561677
143.75	0.0002632427
144.375	0.0002430567
145	0.0002125772
145.625	0.0001870417
146.25	0.0001917616
146.875	0.0002110521
147.5	0.0002033008
148.125	0.0001873949
148.75	0.000195833
149.375	0.0002066306
150	0.0002098227
150.625	0.0002037461
151.25	0.0001971495
151.875	0.0002017283
152.5	0.0001932642
153.125	0.0001711036
153.75	0.0001615786
154.375	0.000152044
155	0.0001433596
155.625	0.0001575292
156.25	0.0001775848
156.875	0.0001878844
157.5	0.0001789815
158.125	0.0001553066
158.75	0.0001549887
159.375	0.0001710761
160	0.0001724941
160.625	0.0001650146
161.25	0.0001526341
161.875	0.0001491829
162.5	0.0001631347
163.125	0.0001678448
163.75	0.0001597903
164.375	0.0001576375
165	0.0001543796
165.625	0.0001439798
166.25	0.0001249714
166.875	9.605721e-5
167.5	7.906237e-5
168.125	7.165535e-5
168.75	5.932913e-5
169.375	7.138484e-5
170	8.648098e-5
170.625	7.881135e-5
171.25	5.964745e-5
171.875	5.954364e-5
172.5	8.291389e-5
173.125	9.295386e-5
173.75	7.564261e-5
174.375	6.502031e-5
175	8.307394e-5
175.625	9.910239e-5
176.25	0.000109809
176.875	0.0001114476
177.5	0.000106788
178.125	0.0001047915
178.75	9.741636e-5
179.375	8.137672e-5
180	6.38845e-5
180.625	4.375991e-5
181.25	3.846462e-5
181.875	5.473044e-5
182.5	6.370198e-5
183.125	6.628154e-5
183.75	5.902338e-5
184.375	5.449945e-5
185	7.750756e-5
185.625	9.578261e-5
186.25	9.126945e-5
186.875	6.996551e-5
187.5	5.714425e-5
188.125	7.681156e-5
188.75	9.371661e-5
189.375	8.759813e-5
190	7.951753e-5
190.625	8.246592e-5
191.25	7.495549e-5
191.875	5.862418e-5
192.5	4.721494e-5
193.125	5.30754e-5
193.75	6.631287e-5
194.375	7.511688e-5
195	9.145835e-5
195.625	0.0001077412
196.25	0.000110205
196.875	0.0001145692
197.5	0.0001345223
198.125	0.0001572625
198.75	0.0001748165
199.375	0.0001750682
200	0.0001629352
200.625	0.0001710592
201.25	0.0002008465
201.875	0.0002299601
202.5	0.0002427182
203.125	0.0002346132
203.75	0.0002250505
204.375	0.000228956
205	0.0002316414
205.625	0.0002314531
206.25	0.000238091
206.875	0.0002413125
207.5	0.0002426443
208.125	0.0002496287
208.75	0.0002595752
209.375	0.0002673705
210	0.0002612691
210.625	0.0002513023
211.25	0.0002643336
211.875	0.0002825868
212.5	0.0002761663
213.125	0.0002494324
213.75	0.0002269572
214.375	0.0002292917
215	0.0002502756
215.625	0.0002593246
216.25	0.0002506218
216.875	0.0002383545
217.5	0.0002244825
218.125	0.0002156227
218.75	0.0002094442
219.375	0.000197342
220	0.0001875731
220.625	0.0001821394
221.25	0.0001691499
221.875	0.0001559825
222.5	0.000154312
223.125	0.0001548459
223.75	0.0001519635
224.375	0.0001434881
225	0.0001413581
225.625	0.0001484896
226.25	0.0001363567
226.875	0.0001084287
227.5	0.0001025746
228.125	0.0001240299
228.75	0.0001441863
229.375	0.0001516713
230	0.0001484209
230.625	0.0001470131
231.25	0.0001487757
231.875	0.0001512876
232.5	0.000164375
233.125	0.0001696807
233.75	0.0001570085
234.375	0.0001430412
235	0.0001392555
235.625	0.0001478195
236.25	0.0001565482
236.875	0.0001546666
237.5	0.0001522403
238.125	0.0001614424
238.75	0.0001688962
239.375	0.0001634566
240	0.0001445942
240.625	0.0001222923
241.25	0.000129717
241.875	0.0001492649
242.5	0.0001483136
243.125	0.0001325003
243.75	0.0001192784
244.375	0.0001208741
245	0.0001297699
245.625	0.0001329457
246.25	0.0001343887
246.875	0.0001369966
247.5	0.0001270647
248.125	0.0001077965
248.75	0.0001015091
249.375	0.0001017603
250	0.0001002543
250.625	9.550849e-5
251.25	8.93811e-5
251.875	8.817446e-5
252.5	8.14426e-5
253.125	6.438641e-5
253.75	5.316818e-5
254.375	5.554805e-5
255	6.025883e-5
255.625	6.362332e-5
256.25	5.712459e-5
256.875	4.508097e-5
257.5	4.830826e-5
258.125	5.845417e-5
258.75	7.161916e-5
259.375	7.987894e-5
260	7.904068e-5
260.625	7.432144e-5
261.25	6.43602e-5
261.875	6.188158e-5
262.5	7.69602e-5
263.125	8.711219e-5
263.75	7.920441e-5
264.375	6.786991e-5
265	6.681768e-5
265.625	6.997972e-5
266.25	6.70107e-5
266.875	5.330843e-5
267.5	5.522214e-5
268.125	7.043712e-5
268.75	7.33151e-5
269.375	6.529297e-5
270	5.501756e-5
270.625	5.336224e-5
271.25	6.55852e-5
271.875	7.821198e-5
272.5	8.050903e-5
273.125	7.68763e-5
273.75	6.803196e-5
274.375	6.258732e-5
275	7.032439e-5
275.625	7.648535e-5
276.25	8.147067e-5
276.875	8.380977e-5
277.5	7.808972e-5
278.125	7.37381e-5
278.75	7.522789e-5
279.375	7.322174e-5
280	6.195095e-5
280.625	5.109749e-5
281.25	5.144783e-5
281.875	5.996114e-5
282.5	5.64064e-5
283.125	3.750981e-5
283.75	3.700969e-5
284.375	5.123599e-5
285	6.096101e-5
285.625	6.470161e-5
286.25	6.431215e-5
286.875	6.177989e-5
287.5	5.351683e-5
288.125	4.185957e-5
288.75	4.323312e-5
289.375	5.324868e-5
290	5.34478e-5
290.625	4.921329e-5
291.25	4.911715e-5
291.875	5.404977e-5
292.5	6.261007e-5
293.125	6.341742e-5
293.75	5.914651e-5
294.375	6.008191e-5
295	6.413092e-5
295.625	6.521565e-5
296.25	5.651041e-5
296.875	4.017552e-5
297.5	3.93787e-5
298.125	5.621742e-5
298.75	6.5944e-5
299.375	6.890581e-5
300	6.724037e-5
300.625	5.844064e-5
301.25	4.952451e-5
301.875	4.814428e-5
302.5	5.836519e-5
303.125	6.529013e-5
303.75	5.482285e-5
304.375	4.092626e-5
305	4.833998e-5
305.625	6.275911e-5
306.25	6.780777e-5
306.875	6.743473e-5
307.5	7.088915e-5
308.125	7.99087e-5
308.75	8.382247e-5
309.375	7.454561e-5
310	6.299958e-5
310.625	5.745222e-5
311.25	6.549673e-5
311.875	8.098628e-5
312.5	8.671264e-5
313.125	8.249802e-5
313.75	7.321141e-5
314.375	6.711937e-5
315	6.910636e-5
315.625	7.580192e-5
316.25	7.953574e-5
316.875	7.511681e-5
317.5	6.21134e-5
318.125	4.617879e-5
318.75	5.333306e-5
319.375	6.801093e-5
320	7.458708e-5
320.625	7.806721e-5
321.25	8.392816e-5
321.875	9.18506e-5
322.5	9.217999e-5
323.125	8.57272e-5
323.75	8.448756e-5
324.375	9.255319e-5
325	9.907687e-5
325.625	0.0001016904
326.25	0.0001028002
326.875	9.760389e-5
327.5	9.048895e-5
328.125	8.270915e-5
328.75	8.021049e-5
329.375	8.635315e-5
330	8.828029e-5
330.625	8.074309e-5
331.25	6.39662e-5
331.875	4.322953e-5
332.5	3.720483e-5
333.125	4.977531e-5
333.75	5.526956e-5
334.375	4.87778e-5
335	4.145306e-5
335.625	3.905129e-5
336.25	4.005477e-5
336.875	3.435757e-5
337.5	2.613056e-5
338.125	3.273465e-5
338.75	4.035777e-5
339.375	4.356195e-5
340	4.49417e-5
340.625	4.466189e-5
341.25	4.112899e-5
341.875	3.946262e-5
342.5	4.304645e-5
343.125	5.172193e-5
343.75	5.855003e-5
344.375	5.645132e-5
345	4.496799e-5
345.625	3.310828e-5
346.25	2.355548e-5
346.875	1.838737e-5
347.5	2.072227e-5
348.125	2.265208e-5
348.75	2.001482e-5
349.375	1.895898e-5
350	2.404791e-5
350.625	2.968534e-5
351.25	3.268331e-5
351.875	3.113286e-5
352.5	2.398903e-5
353.125	2.46878e-5
353.75	3.377869e-5
354.375	3.636684e-5
355	3.538127e-5
355.625	3.367137e-5
356.25	3.158046e-5
356.875	3.121854e-5
357.5	3.334786e-5
358.125	3.380588e-5
358.75	2.938616e-5
359.375	2.043773e-5
360	1.469822e-5
360.625	1.409578e-5
361.25	1.536938e-5
361.875	1.915686e-5
362.5	1.850435e-5
363.125	1.701289e-5
363.75	1.588598e-5
364.375	1.491805e-5
365	2.692947e-5
365.625	3.58009e-5
366.25	3.679248e-5
366.875	3.592335e-5
367.5	3.269454e-5
368.125	2.43566e-5
368.75	1.603276e-5
369.375	1.165454e-5
370	3.076497e-5
370.625	5.429033e-5
371.25	6.708787e-5
371.875	7.288602e-5
372.5	7.00574e-5
373.125	6.728883e-5
373.75	8.171865e-5
374.375	9.701091e-5
375	9.714429e-5
375.625	8.934127e-5
376.25	8.313223e-5
376.875	8.207676e-5
377.5	8.630031e-5
378.125	8.566309e-5
378.75	8.435055e-5
379.375	9.667512e-5
380	0.0001059637
380.625	0.0001060997
381.25	0.0001027044
381.875	8.99795e-5
382.5	7.87003e-5
383.125	7.829689e-5
383.75	7.942094e-5
384.375	8.199776e-5
385	8.361042e-5
385.625	7.709918e-5
386.25	7.527593e-5
386.875	7.898588e-5
387.5	8.090015e-5
388.125	8.926129e-5
388.75	9.158383e-5
389.375	8.486611e-5
390	8.267316e-5
390.625	7.854622e-5
391.25	7.496028e-5
391.875	7.942387e-5
392.5	8.406182e-5
393.125	9.044257e-5
393.75	9.345783e-5
394.375	8.413583e-5
395	7.662279e-5
395.625	7.765992e-5
396.25	6.835902e-5
396.875	5.757476e-5
397.5	5.470577e-5
398.125	5.710318e-5
398.75	6.282933e-5
399.375	5.20812e-5
400	3.573616e-5
400.625	4.68064e-5
401.25	5.992967e-5
401.875	6.284282e-5
402.5	5.7488e-5
403.125	4.431178e-5
403.75	4.651619e-5
404.375	5.76337e-5
405	5.771556e-5
405.625	6.123334e-5
406.25	6.635981e-5
406.875	6.904949e-5
407.5	7.460124e-5
408.125	6.916059e-5
408.75	5.777166e-5
409.375	5.561073e-5
410	5.296384e-5
410.625	5.315952e-5
411.25	5.910104e-5
411.875	5.389134e-5
412.5	4.226864e-5
413.125	3.772695e-5
413.75	3.857115e-5
414.375	5.117693e-5
415	5.31321e-5
415.625	4.000508e-5
416.25	3.482318e-5
416.875	3.235802e-5
417.5	3.084779e-5
418.125	4.093394e-5
418.75	5.02257e-5
419.375	6.014009e-5
420	6.513421e-5
420.625	5.635768e-5
421.25	5.283989e-5
421.875	5.921873e-5
422.5	5.619098e-5
423.125	5.243324e-5
423.75	4.753852e-5
424.375	3.817628e-5
425	3.88235e-5
425.625	3.3183e-5
426.25	1.568324e-5
426.875	1.933992e-5
427.5	3.072548e-5
428.125	3.679225e-5
428.75	3.586636e-5
429.375	1.926754e-5
430	9.007524e-6
430.625	2.159514e-5
431.25	2.526887e-5
431.875	3.175787e-5
432.5	2.950207e-5
433.125	2.471652e-5
433.75	3.017893e-5
434.375	3.053018e-5
435	3.310759e-5
435.625	3.703761e-5
436.25	3.088611e-5
436.875	2.40902e-5
437.5	2.250959e-5
438.125	1.036859e-5
438.75	6.782208e-6
439.375	1.591182e-5
440	2.706612e-5
440.625	3.535681e-5
441.25	2.853979e-5
441.875	2.974125e-5
442.5	4.033642e-5
443.125	4.80865e-5
443.75	6.017003e-5
444.375	6.599547e-5
445	6.384499e-5
445.625	6.75324e-5
446.25	6.773943e-5
446.875	6.431572e-5
447.5	7.695543e-5
448.125	8.536864e-5
448.75	8.574837e-5
449.375	8.457551e-5
450	7.149019e-5
450.625	6.746622e-5
451.25	7.587025e-5
451.875	7.349485e-5
452.5	7.239902e-5
453.125	7.930857e-5
453.75	8.272658e-5
454.375	8.671486e-5
455	8.420755e-5
455.625	7.403218e-5
456.25	8.460788e-5
456.875	9.623695e-5
457.5	9.702596e-5
458.125	9.919218e-5
458.75	9.105525e-5
459.375	8.327308e-5
460	8.602865e-5
460.625	8.465751e-5
461.25	8.653587e-5
461.875	9.436372e-5
462.5	8.912222e-5
463.125	8.008509e-5
463.75	7.737643e-5
464.375	6.959811e-5
465	7.102148e-5
465.625	7.398918e-5
466.25	6.905181e-5
466.875	7.322711e-5
467.5	6.983782e-5
468.125	5.350864e-5
468.75	4.607551e-5
469.375	4.462685e-5
470	4.727542e-5
470.625	5.12545e-5
471.25	4.366244e-5
471.875	3.802092e-5
472.5	4.194052e-5
473.125	3.537402e-5
473.75	3.99598e-5
474.375	4.915156e-5
475	4.989113e-5
475.625	5.062575e-5
476.25	3.771137e-5
476.875	2.856388e-5
477.5	4.331465e-5
478.125	5.069309e-5
478.75	5.458243e-5
479.375	6.10197e-5
480	6.189969e-5
480.625	6.467331e-5
481.25	6.612537e-5
481.875	5.75281e-5
482.5	6.393866e-5
483.125	7.094155e-5
483.75	6.455951e-5
484.375	5.919517e-5
485	4.8767e-5
485.625	4.253993e-5
486.25	5.325963e-5
486.875	5.903022e-5
487.5	6.366318e-5
488.125	6.839672e-5
488.75	6.083567e-5
489.375	5.319414e-5
490	5.55486e-5
490.625	5.223608e-5
491.25	5.661251e-5
491.875	6.008938e-5
492.5	5.685557e-5
493.125	6.310033e-5
493.75	6.386027e-5
494.375	5.881627e-5
495	6.224248e-5
495.625	6.473969e-5
496.25	6.448923e-5
496.875	6.577725e-5
497.5	5.613166e-5
498.125	3.709531e-5
498.75	2.869832e-5
499.375	2.022152e-5
500	1.473907e-5
500.625	1.857361e-5
501.25	1.487919e-5
501.875	1.605986e-5
502.5	1.040059e-5
503.125	7.104955e-6
503.75	1.865006e-5
504.375	1.97776e-5
505	2.02246e-5
505.625	2.463724e-5
506.25	2.839337e-5
506.875	4.008646e-5
507.5	4.559164e-5
508.125	4.173021e-5
508.75	4.645556e-5
509.375	4.786799e-5
510	4.13968e-5
510.625	3.651692e-5
511.25	2.234689e-5
511.875	9.938649e-6
512.5	2.214908e-5
513.125	2.543175e-5
513.75	2.847105e-5
514.375	3.155817e-5
515	3.093961e-5
515.625	3.997805e-5
516.25	4.690853e-5
516.875	5.124065e-5
517.5	6.034596e-5
518.125	5.791646e-5
518.75	5.48425e-5
519.375	6.24862e-5
520	6.576585e-5
520.625	6.707805e-5
521.25	7.082462e-5
521.875	6.964073e-5
522.5	6.905782e-5
523.125	6.748364e-5
523.75	5.416918e-5
524.375	4.235923e-5
525	4.119707e-5
525.625	3.633768e-5
526.25	3.978063e-5
526.875	4.122262e-5
527.5	3.629342e-5
528.125	3.457437e-5
528.75	2.702046e-5
529.375	2.587972e-5
530	3.79146e-5
530.625	4.198859e-5
531.25	3.93727e-5
531.875	3.67405e-5
532.5	3.572978e-5
533.125	5.044484e-5
533.75	6.152406e-5
534.375	5.839831e-5
535	5.77922e-5
535.625	5.747948e-5
536.25	5.140218e-5
536.875	4.524502e-5
537.5	3.258585e-5
538.125	1.981814e-5
538.75	2.396195e-5
539.375	2.44868e-5
540	2.014089e-5
540.625	2.025291e-5
541.25	1.385188e-5
541.875	1.2077e-5
542.5	1.685285e-5
543.125	1.752015e-5
543.75	2.029837e-5
544.375	1.497634e-5
545	1.997032e-5
545.625	3.27509e-5
546.25	4.034115e-5
546.875	4.917529e-5
547.5	5.584167e-5
548.125	5.260986e-5
548.75	4.532948e-5
549.375	3.85315e-5
550	2.804618e-5
550.625	2.875019e-5
551.25	3.068881e-5
551.875	2.7694e-5
552.5	3.050105e-5
553.125	3.148916e-5
553.75	3.678383e-5
554.375	4.254295e-5
555	3.847186e-5
555.625	3.680546e-5
556.25	4.172667e-5
556.875	4.006781e-5
557.5	3.198635e-5
558.125	2.529163e-5
558.75	3.420826e-5
559.375	5.53038e-5
560	6.52102e-5
560.625	6.513898e-5
561.25	6.671775e-5
561.875	6.477276e-5
562.5	6.194484e-5
563.125	6.172545e-5
563.75	5.599684e-5
564.375	4.753184e-5
565	4.427984e-5
565.625	3.963791e-5
566.25	3.475155e-5
566.875	2.994472e-5
567.5	2.210768e-5
568.125	3.020736e-5
568.75	3.764989e-5
569.375	3.352361e-5
570	2.669367e-5
570.625	1.73067e-5
571.25	1.035263e-5
571.875	1.49113e-5
572.5	2.06318e-5
573.125	3.007791e-5
573.75	3.658804e-5
574.375	3.751565e-5
575	3.958088e-5
575.625	3.898166e-5
576.25	3.61735e-5
576.875	4.327151e-5
577.5	4.804384e-5
578.125	4.302971e-5
578.75	3.345954e-5
579.375	2.467388e-5
580	3.388168e-5
580.625	4.330033e-5
581.25	4.294124e-5
581.875	4.256429e-5
582.5	4.516914e-5
583.125	4.487659e-5
583.75	4.431679e-5
584.375	4.438447e-5
585	4.958077e-5
585.625	6.505125e-5
586.25	7.424846e-5
586.875	7.475804e-5
587.5	7.090717e-5
588.125	6.980259e-5
588.75	8.108726e-5
589.375	9.381041e-5
590	9.351288e-5
590.625	8.810315e-5
591.25	8.601942e-5
591.875	8.43739e-5
592.5	8.057761e-5
593.125	7.491382e-5
593.75	6.949691e-5
594.375	7.185797e-5
595	7.316488e-5
595.625	6.827764e-5
596.25	6.166491e-5
596.875	4.981395e-5
597.5	4.028334e-5
598.125	4.718837e-5
598.75	5.549038e-5
599.375	5.445466e-5
600	4.666992e-5
600.625	4.181875e-5
601.25	4.669081e-5
601.875	5.175796e-5
602.5	4.891347e-5
603.125	4.903204e-5
603.75	5.280109e-5
604.375	5.193627e-5
605	4.85346e-5
605.625	4.070067e-5
606.25	3.548548e-5
606.875	3.818387e-5
607.5	4.233983e-5
608.125	4.038226e-5
608.75	3.240174e-5
609.375	2.000902e-5
610	1.077417e-5
610.625	8.1669e-6
611.25	3.25692e-6
611.875	1.234008e-5
612.5	1.966488e-5
613.125	2.20814e-5
613.75	2.255482e-5
614.375	2.907151e-5
615	4.005658e-5
615.625	4.65405e-5
616.25	4.53124e-5
616.875	4.038575e-5
617.5	3.337083e-5
618.125	3.06037e-5
618.75	3.626869e-5
619.375	4.048982e-5
620	3.633533e-5
620.625	3.086592e-5
621.25	3.260854e-5
621.875	3.71492e-5
622.5	3.454397e-5
623.125	2.39967e-5
623.75	2.362542e-5
624.375	3.115826e-5
625	3.362611e-5
625.625	2.990225e-5
626.25	2.713843e-5
626.875	3.011051e-5
627.5	3.767831e-5
628.125	4.488899e-5
628.75	4.756214e-5
629.375	4.621461e-5
630	4.26099e-5
630.625	4.225463e-5
631.25	4.075911e-5
631.875	3.395035e-5
632.5	3.1067e-5
633.125	3.539713e-5
633.75	3.837169e-5
634.375	3.263397e-5
635	2.403118e-5
635.625	2.507746e-5
636.25	2.961942e-5
636.875	3.025291e-5
637.5	2.697523e-5
638.125	2.463904e-5
638.75	2.372713e-5
639.375	2.429984e-5
640	2.460856e-5
640.625	2.545447e-5
641.25	3.277243e-5
641.875	4.33346e-5
642.5	4.788604e-5
643.125	4.091249e-5
643.75	3.003833e-5
644.375	3.471901e-5
645	4.548448e-5
645.625	4.694821e-5
646.25	4.124104e-5
646.875	3.785842e-5
647.5	4.037775e-5
648.125	4.3891e-5
648.75	4.640448e-5
649.375	5.125331e-5
650	5.465942e-5
650.625	5.47585e-5
651.25	5.612458e-5
651.875	5.329697e-5
652.5	4.665247e-5
653.125	4.436801e-5
653.75	5.126696e-5
654.375	5.814005e-5
655	5.567014e-5
655.625	4.902801e-5
656.25	5.009048e-5
656.875	5.583953e-5
657.5	5.715444e-5
658.125	5.878998e-5
658.75	6.419086e-5
659.375	6.760249e-5
660	6.968387e-5
660.625	6.59869e-5
661.25	6.360317e-5
661.875	6.635502e-5
662.5	7.284376e-5
663.125	7.95119e-5
663.75	7.725594e-5
664.375	6.642786e-5
665	5.969716e-5
665.625	6.654964e-5
666.25	6.976142e-5
666.875	6.466984e-5
667.5	5.949953e-5
668.125	6.00599e-5
668.75	6.318045e-5
669.375	5.763974e-5
670	4.519927e-5
670.625	3.98759e-5
671.25	3.965067e-5
671.875	4.215971e-5
672.5	4.368295e-5
673.125	3.896632e-5
673.75	3.523742e-5
674.375	4.264794e-5
675	5.172245e-5
675.625	5.538606e-5
676.25	5.159108e-5
676.875	4.728565e-5
677.5	5.121173e-5
678.125	4.926363e-5
678.75	3.718402e-5
679.375	2.855488e-5
680	2.999969e-5
680.625	3.39451e-5
681.25	3.282269e-5
681.875	2.630247e-5
682.5	1.759271e-5
683.125	1.282747e-5
683.75	1.070837e-5
684.375	1.051054e-5
685	6.66397e-6
685.625	1.324388e-5
686.25	2.680988e-5
686.875	3.075545e-5
687.5	3.288106e-5
688.125	3.964489e-5
688.75	5.068291e-5
689.375	5.84252e-5
690	5.404868e-5
690.625	4.046299e-5
691.25	3.194782e-5
691.875	3.496734e-5
692.5	3.61729e-5
693.125	3.744984e-5
693.75	3.347375e-5
694.375	2.809871e-5
695	3.230642e-5
695.625	3.397105e-5
696.25	2.976398e-5
696.875	2.346881e-5
697.5	2.34372e-5
698.125	2.980316e-5
698.75	2.627073e-5
699.375	1.11482e-5
700	2.399455e-5
700.625	4.138186e-5
701.25	4.827289e-5
701.875	4.901146e-5
702.5	4.534733e-5
703.125	4.34457e-5
703.75	4.453964e-5
704.375	3.99691e-5
705	3.692916e-5
705.625	3.35162e-5
706.25	2.666557e-5
706.875	2.554411e-5
707.5	2.674484e-5
708.125	1.886134e-5
708.75	9.964138e-6
709.375	2.002922e-5
710	2.741943e-5
710.625	2.627513e-5
711.25	1.278447e-5
711.875	1.698828e-5
712.5	3.213569e-5
713.125	3.904039e-5
713.75	4.447869e-5
714.375	4.652283e-5
715	4.844764e-5
715.625	5.479203e-5
716.25	5.653949e-5
716.875	5.101566e-5
717.5	4.931813e-5
718.125	5.511076e-5
718.75	6.173162e-5
719.375	6.243667e-5
720	4.778714e-5
720.625	4.329123e-5
721.25	5.636114e-5
721.875	5.989586e-5
722.5	5.392986e-5
723.125	4.614806e-5
723.75	4.370553e-5
724.375	4.570289e-5
725	4.33614e-5
725.625	3.808641e-5
726.25	4.479169e-5
726.875	5.166521e-5
727.5	5.847676e-5
728.125	6.511029e-5
728.75	6.025906e-5
729.375	5.228243e-5
730	5.745398e-5
730.625	6.375971e-5
731.25	6.636997e-5
731.875	5.871923e-5
732.5	4.962931e-5
733.125	5.261919e-5
733.75	5.913632e-5
734.375	5.567935e-5
735	5.112751e-5
735.625	4.908939e-5
736.25	4.339822e-5
736.875	4.408467e-5
737.5	3.907284e-5
738.125	2.533295e-5
738.75	1.276846e-5
739.375	1.622291e-5
740	2.642008e-5
740.625	2.646687e-5
741.25	2.065681e-5
741.875	3.06666e-5
742.5	3.950964e-5
743.125	3.412369e-5
743.75	2.743331e-5
744.375	2.89475e-5
745	3.460158e-5
745.625	3.817469e-5
746.25	2.979279e-5
746.875	2.820923e-5
747.5	3.63615e-5
748.125	4.123485e-5
748.75	4.455609e-5
749.375	4.185915e-5
750	3.058232e-5
750.625	2.165921e-5
751.25	2.192899e-5
751.875	1.479394e-5
752.5	6.943309e-6
753.125	1.494407e-5
753.75	2.955331e-5
754.375	3.509465e-5
755	2.913404e-5
755.625	3.45066e-5
756.25	4.339826e-5
756.875	4.657643e-5
757.5	4.827481e-5
758.125	4.68547e-5
758.75	3.964211e-5
759.375	3.52043e-5
760	3.960924e-5
760.625	4.498587e-5
761.25	4.925469e-5
761.875	4.301756e-5
762.5	3.72977e-5
763.125	4.447125e-5
763.75	3.965385e-5
764.375	2.619165e-5
765	1.599931e-5
765.625	1.868166e-5
766.25	2.22349e-5
766.875	1.669806e-5
767.5	1.235501e-5
768.125	2.795043e-5
768.75	3.822426e-5
769.375	4.070967e-5
770	4.379168e-5
770.625	4.048363e-5
771.25	4.382786e-5
771.875	5.05742e-5
772.5	4.484351e-5
773.125	3.74456e-5
773.75	3.910001e-5
774.375	4.646854e-5
775	4.990638e-5
775.625	4.132607e-5
776.25	2.722788e-5
776.875	2.824562e-5
777.5	3.30495e-5
778.125	2.520073e-5
778.75	2.145642e-5
779.375	1.744231e-5
780	1.593625e-5
780.625	2.0117e-5
781.25	2.546187e-5
781.875	3.38618e-5
782.5	3.635893e-5
783.125	4.191533e-5
783.75	5.200285e-5
784.375	5.441216e-5
785	4.591339e-5
785.625	4.69543e-5
786.25	5.443974e-5
786.875	5.657103e-5
787.5	5.486116e-5
788.125	4.432279e-5
788.75	3.95521e-5
789.375	4.476028e-5
790	4.098385e-5
790.625	3.68105e-5
791.25	3.302911e-5
791.875	3.297344e-5
792.5	3.95358e-5
793.125	4.116429e-5
793.75	2.923277e-5
794.375	2.656185e-5
795	3.825915e-5
795.625	4.51157e-5
796.25	4.515389e-5
796.875	3.521585e-5
797.5	4.08104e-5
798.125	5.316517e-5
798.75	5.171164e-5
799.375	4.720816e-5
800	4.967392e-5
800.625	5.402618e-5
801.25	5.547911e-5
801.875	5.344558e-5
802.5	4.518517e-5
803.125	3.970462e-5
803.75	3.781129e-5
804.375	3.401122e-5
805	3.854589e-5
805.625	3.469744e-5
806.25	2.212861e-5
806.875	1.980093e-5
807.5	2.036529e-5
808.125	2.051175e-5
808.75	1.842483e-5
809.375	1.811589e-5
810	1.988156e-5
810.625	2.064184e-5
811.25	1.334061e-5
811.875	1.014088e-5
812.5	1.233299e-5
813.125	1.532404e-5
813.75	2.255485e-5
814.375	1.860554e-5
815	6.06008e-6
815.625	9.009864e-6
816.25	1.724901e-5
816.875	1.945001e-5
817.5	1.204152e-5
818.125	7.319767e-7
818.75	1.098605e-5
819.375	1.128091e-5
820	1.287314e-6
820.625	1.455673e-5
821.25	2.145966e-5
821.875	2.442994e-5
822.5	1.984374e-5
823.125	9.337698e-6
823.75	1.696769e-5
824.375	2.360292e-5
825	2.54996e-5
825.625	2.361821e-5
826.25	1.867813e-5
826.875	1.954012e-5
827.5	2.890341e-5
828.125	3.096955e-5
828.75	2.812488e-5
829.375	3.428094e-5
830	3.586839e-5
830.625	3.527408e-5
831.25	3.107129e-5
831.875	2.225731e-5
832.5	2.494518e-5
833.125	2.555166e-5
833.75	2.550199e-5
834.375	2.838614e-5
835	2.739353e-5
835.625	1.957561e-5
836.25	2.272908e-5
836.875	3.079914e-5
837.5	2.957465e-5
838.125	2.304142e-5
838.75	1.54846e-5
839.375	2.638634e-5
840	2.932515e-5
840.625	1.884077e-5
841.25	2.413915e-5
841.875	3.881252e-5
842.5	4.675789e-5
843.125	4.41944e-5
843.75	3.631286e-5
844.375	3.525518e-5
845	4.487023e-5
845.625	4.86535e-5
846.25	4.254062e-5
846.875	3.663092e-5
847.5	3.191128e-5
848.125	3.868466e-5
848.75	4.195074e-5
849.375	3.290504e-5
850	2.799814e-5
850.625	3.332758e-5
851.25	3.82291e-5
851.875	3.542052e-5
852.5	3.044262e-5
853.125	3.161416e-5
853.75	3.86952e-5
854.375	4.079015e-5
855	4.196102e-5
855.625	4.948301e-5
856.25	4.741306e-5
856.875	4.728629e-5
857.5	5.193352e-5
858.125	5.424841e-5
858.75	5.249837e-5
859.375	4.609694e-5
860	4.794619e-5
860.625	5.593048e-5
861.25	5.647746e-5
861.875	4.51191e-5
862.5	3.772598e-5
863.125	4.197601e-5
863.75	4.22172e-5
864.375	3.909459e-5
865	2.866731e-5
865.625	2.176044e-5
866.25	2.524729e-5
866.875	2.570743e-5
867.5	2.291023e-5
868.125	2.005653e-5
868.75	2.73366e-5
869.375	3.781987e-5
870	3.929605e-5
870.625	2.84167e-5
871.25	2.239453e-5
871.875	3.179893e-5
872.5	3.645362e-5
873.125	3.430872e-5
873.75	2.654665e-5
874.375	2.925289e-5
875	3.584861e-5
875.625	3.38984e-5
876.25	2.938722e-5
876.875	2.678883e-5
877.5	2.671667e-5
878.125	2.34187e-5
878.75	1.987198e-5
879.375	1.420783e-5
880	4.017226e-6
880.625	4.624964e-6
881.25	1.381762e-5
881.875	1.808391e-5
882.5	1.406941e-5
883.125	1.345035e-5
883.75	1.759841e-5
884.375	2.036433e-5
885	1.961034e-5
885.625	1.640177e-5
886.25	1.357055e-5
886.875	1.56422e-5
887.5	2.171605e-5
888.125	2.222828e-5
888.75	1.941281e-5
889.375	1.748445e-5
890	2.268567e-5
890.625	3.067475e-5
891.25	2.813686e-5
891.875	1.736089e-5
892.5	5.936641e-6
893.125	2.479376e-6
893.75	5.549645e-6
894.375	9.255314e-6
895	1.541214e-5
895.625	1.835041e-5
896.25	1.444517e-5
896.875	9.641299e-6
897.5	1.638096e-5
898.125	1.946532e-5
898.75	1.838023e-5
899.375	1.45789e-5
900	1.182235e-5
900.625	1.656652e-5
901.25	1.978756e-5
901.875	2.165476e-5
902.5	1.957352e-5
903.125	1.761009e-5
903.75	1.576191e-5
904.375	1.41237e-5
905	1.216675e-5
905.625	4.655796e-6
906.25	2.373718e-6
906.875	6.650449e-6
907.5	1.246054e-5
908.125	1.532307e-5
908.75	1.633627e-5
909.375	1.56807e-5
910	2.145849e-5
910.625	2.996094e-5
911.25	3.193838e-5
911.875	2.571034e-5
912.5	1.995251e-5
913.125	3.047154e-5
913.75	3.874619e-5
914.375	3.446793e-5
915	2.748973e-5
915.625	2.784813e-5
916.25	3.580207e-5
916.875	3.630933e-5
917.5	2.634861e-5
918.125	1.674253e-5
918.75	1.572821e-5
919.375	1.886043e-5
920	1.691549e-5
920.625	1.5586e-5
921.25	1.481742e-5
921.875	1.786514e-5
922.5	2.080287e-5
923.125	2.216396e-5
923.75	2.61892e-5
924.375	3.090698e-5
925	3.524949e-5
925.625	3.440433e-5
926.25	3.305632e-5
926.875	3.797074e-5
927.5	4.554019e-5
928.125	4.880847e-5
928.75	4.5983e-5
929.375	4.503733e-5
930	4.348612e-5
930.625	3.903222e-5
931.25	3.383475e-5
931.875	2.922556e-5
932.5	2.98511e-5
933.125	2.617646e-5
933.75	1.880046e-5
934.375	1.66051e-5
935	1.826291e-5
935.625	1.47187e-5
936.25	7.249906e-6
936.875	1.130965e-5
937.5	1.57839e-5
938.125	1.492801e-5
938.75	8.606258e-6
939.375	1.152866e-5
940	2.155528e-5
940.625	2.769228e-5
941.25	3.183897e-5
941.875	2.988692e-5
942.5	2.660504e-5
943.125	2.723279e-5
943.75	2.969819e-5
944.375	2.828859e-5
945	2.181614e-5
945.625	1.777046e-5
946.25	1.556283e-5
946.875	1.532107e-5
947.5	1.373018e-5
948.125	1.031718e-5
948.75	6.839289e-6
949.375	6.665164e-6
950	1.227186e-5
950.625	1.670568e-5
951.25	1.605156e-5
951.875	1.480008e-5
952.5	2.049111e-5
953.125	2.828813e-5
953.75	3.188935e-5
954.375	2.8418e-5
955	2.61047e-5
955.625	3.004475e-5
956.25	3.116081e-5
956.875	3.111118e-5
957.5	2.807734e-5
958.125	2.389675e-5
958.75	2.090139e-5
959.375	1.690195e-5
960	1.114778e-5
960.625	5.498926e-6
961.25	7.060064e-6
961.875	9.801012e-6
962.5	1.132996e-5
963.125	1.168827e-5
963.75	1.843466e-5
964.375	2.374412e-5
965	2.123561e-5
965.625	1.904407e-5
966.25	2.305648e-5
966.875	2.803472e-5
967.5	2.814566e-5
968.125	2.274781e-5
968.75	2.380491e-5
969.375	3.016215e-5
970	3.102645e-5
970.625	2.453532e-5
971.25	2.357141e-5
971.875	2.632205e-5
972.5	2.472176e-5
973.125	1.955681e-5
973.75	1.054427e-5
974.375	8.723329e-6
975	9.441411e-6
975.625	3.685492e-6
976.25	6.282271e-6
976.875	1.196635e-5
977.5	1.388685e-5
978.125	1.336166e-5
978.75	1.330806e-5
979.375	1.830506e-5
980	2.47536e-5
980.625	2.373103e-5
981.25	1.91971e-5
981.875	1.697991e-5
982.5	1.920429e-5
983.125	2.559517e-5
983.75	2.508376e-5
984.375	1.97456e-5
985	2.098413e-5
985.625	2.452943e-5
986.25	2.336837e-5
986.875	1.922976e-5
987.5	1.696354e-5
988.125	1.553745e-5
988.75	1.554896e-5
989.375	1.240745e-5
990	1.244742e-5
990.625	1.410076e-5
991.25	9.658458e-6
991.875	1.313857e-5
992.5	2.019858e-5
993.125	2.178004e-5
993.75	2.02993e-5
994.375	1.715939e-5
995	1.844673e-5
995.625	2.254302e-5
996.25	2.230118e-5
996.875	1.862135e-5
997.5	1.93732e-5
998.125	1.900123e-5
998.75	1.910632e-5
999.375	1.957003e-5
1000	1.515863e-5
