Source File Name:	Analyzer
Signal:	FFT - Vib Velocity - Magnitude

Frequency	Magnitude
[ Hz ]	[ m/s ]
20	0.0003322314
20.625	0.0002347023
21.25	0.0001884693
21.875	0.0001888983
22.5	0.0002339665
23.125	0.0002257188
23.75	0.0002184583
24.375	0.0002441262
25	0.0002286396
25.625	0.0002469459
26.25	0.0002639446
26.875	0.0003139509
27.5	0.0002460756
28.125	0.0002654992
28.75	0.0002631925
29.375	0.0002529589
30	0.0002610596
30.625	0.0002667476
31.25	0.0002723353
31.875	0.0001876677
32.5	0.0002310691
33.125	0.0002648959
33.75	0.0003033202
34.375	0.0003343398
35	0.0003682863
35.625	0.0003409775
36.25	0.0003018747
36.875	0.0003043512
37.5	0.000319312
38.125	0.0003062223
38.75	0.0002999845
39.375	0.0002953194
40	0.0002898705
40.625	0.000266396
41.25	0.0003555692
41.875	0.0003380254
42.5	0.0003572809
43.125	0.0003316046
43.75	0.0003197816
44.375	0.0002971118
45	0.0002542454
45.625	0.0002753435
46.25	0.000267547
46.875	0.0002786847
47.5	0.0002286232
48.125	0.0002372372
48.75	0.0001991079
49.375	0.0001933236
50	0.0002585326
50.625	0.0002587524
51.25	0.0002657723
51.875	0.0002371927
52.5	0.0002455069
53.125	0.0002050764
53.75	0.0002122147
54.375	0.0002619665
55	0.000255786
55.625	0.0002483461
56.25	0.0002699068
56.875	0.0002500171
57.5	0.0002441988
58.125	0.0002639794
58.75	0.0002796083
59.375	0.0002820366
60	0.0002729348
60.625	0.0002328462
61.25	0.0002335777
61.875	0.0002296094
62.5	0.0002780361
63.125	0.0002838697
63.75	0.0002924546
64.375	0.0002545658
65	0.0002605177
65.625	0.000241781
66.25	0.0002560045
66.875	0.0002737283
67.5	0.0002307526
68.125	0.000215415
68.75	0.0001459263
69.375	0.0001363294
70	0.0001484486
70.625	0.0001283778
71.25	0.0001488144
71.875	0.0001231283
72.5	0.0001048188
73.125	8.52493e-5
73.75	0.0001144615
74.375	9.947026e-5
75	8.215732e-5
75.625	0.0001102796
76.25	0.0001300805
76.875	0.0002129382
77.5	0.0002547981
78.125	0.0002757747
78.75	0.0002798546
79.375	0.000284613
80	0.0002869274
80.625	0.0003413134
81.25	0.0003884054
81.875	0.0004027802
82.5	0.0004097914
83.125	0.000433077
83.75	0.0004362053
84.375	0.0004766457
85	0.0004790531
85.625	0.0005204771
86.25	0.0005084918
86.875	0.0005055572
87.5	0.0005295748
88.125	0.0005472378
88.75	0.0005663532
89.375	0.0006260845
90	0.0006217422
90.625	0.0006287983
91.25	0.0006242068
91.875	0.0006392661
92.5	0.0006391108
93.125	0.0006616511
93.75	0.0006668836
94.375	0.0006588559
95	0.00063657
95.625	0.0006784216
96.25	0.0007148013
96.875	0.0007565239
97.5	0.0007485996
98.125	0.0007377664
98.75	0.0006822241
99.375	0.0006611077
100	0.0006482856
100.625	0.0006703751
101.25	0.0006484689
101.875	0.0006338887
102.5	0.0006214881
103.125	0.0006244436
103.75	0.0006259443
104.375	0.0006403471
105	0.0006350586
105.625	0.0006076604
106.25	0.0005884568
106.875	0.0005970747
107.5	0.0006130878
108.125	0.0006535746
108.75	0.0006483494
109.375	0.0006706041
110	0.0006581925
110.625	0.0006647969
111.25	0.0006944026
111.875	0.0007259965
112.5	0.0007371047
113.125	0.0007634414
113.75	0.0007748898
114.375	0.0007820897
115	0.0008233549
115.625	0.0008721014
116.25	0.0008944737
116.875	0.0009076827
117.5	0.0009090525
118.125	0.000890615
118.75	0.0008874267
119.375	0.0008888295
120	0.0009254947
120.625	0.0009236676
121.25	0.0009190309
121.875	0.0009119122
122.5	0.0009038009
123.125	0.0008808729
123.75	0.0008921193
124.375	0.0008255226
125	0.0007491301
125.625	0.0006678235
126.25	0.000578881
126.875	0.0004848986
127.5	0.0004474548
128.125	0.0003990179
128.75	0.0003573325
129.375	0.0002986675
130	0.0002721089
130.625	0.0002141019
131.25	0.0002004169
131.875	0.0001905705
132.5	0.0001777723
133.125	0.0001420735
133.75	0.0001406771
134.375	0.0001215676
135	0.0001389583
135.625	0.0001328657
136.25	0.0001437197
136.875	9.602654e-5
137.5	8.993907e-5
138.125	6.682317e-5
138.75	7.617717e-5
139.375	7.987041e-5
140	9.839471e-5
140.625	9.578268e-5
141.25	6.561013e-5
141.875	9.336122e-5
142.5	9.776665e-5
143.125	0.0001017856
143.75	0.0001025719
144.375	8.768484e-5
145	6.298471e-5
145.625	4.739736e-5
146.25	4.324181e-5
146.875	3.62835e-5
147.5	8.63965e-5
148.125	8.637142e-5
148.75	0.0001144723
149.375	0.0001155007
150	0.0001370223
150.625	0.0001365652
151.25	0.0001650395
151.875	0.0001842165
152.5	0.0001860243
153.125	0.000186349
153.75	0.0001986321
154.375	0.0001737025
155	0.0002056009
155.625	0.0002316942
156.25	0.0002567754
156.875	0.0002315153
157.5	0.0002580479
158.125	0.000220796
158.75	0.0002351239
159.375	0.000235586
160	0.0002601142
160.625	0.0002650478
161.25	0.0002468645
161.875	0.000264202
162.5	0.0002573272
163.125	0.0002687635
163.75	0.00029632
164.375	0.0002987774
165	0.0002828012
165.625	0.0002636886
166.25	0.0002671205
166.875	0.0002320493
167.5	0.0002714233
168.125	0.0002854059
168.75	0.0002813222
169.375	0.0002949233
170	0.0002907927
170.625	0.0003120174
171.25	0.0003106209
171.875	0.0003198479
172.5	0.0002933337
173.125	0.000262059
173.75	0.0002403987
174.375	0.0002423871
175	0.0002511275
175.625	0.0002696785
176.25	0.0002659261
176.875	0.0002432282
177.5	0.0002250738
178.125	0.000250907
178.75	0.0002438931
179.375	0.0002608163
180	0.0002666158
180.625	0.0002542692
181.25	0.0002391605
181.875	0.0002718427
182.5	0.0002805613
183.125	0.000292472
183.75	0.0002932226
184.375	0.0003073904
185	0.0003079651
185.625	0.0003132226
186.25	0.0003295809
186.875	0.0003491514
187.5	0.0003288401
188.125	0.0003275105
188.75	0.0003429016
189.375	0.0003203893
190	0.0003352223
190.625	0.0003321056
191.25	0.0003056887
191.875	0.0002777509
192.5	0.0002452895
193.125	0.0002350864
193.75	0.0002160848
194.375	0.0002504605
195	0.000242903
195.625	0.00023666
196.25	0.0002230497
196.875	0.0002095106
197.5	0.0002161723
198.125	0.0001920541
198.75	0.0001927708
199.375	0.0001785564
200	0.0001746035
200.625	0.0001885248
201.25	0.0002066786
201.875	0.0002273373
202.5	0.0002309158
203.125	0.0002201785
203.75	0.0002106211
204.375	0.0002066031
205	0.0002146891
205.625	0.0001983235
206.25	0.0002067428
206.875	0.0001854111
207.5	0.0001963703
208.125	0.0002220898
208.75	0.0002505327
209.375	0.0002862333
210	0.0002769724
210.625	0.0002818158
211.25	0.000302917
211.875	0.00031504
212.5	0.0003455402
213.125	0.0003750001
213.75	0.0004007682
214.375	0.0003870864
215	0.0004012469
215.625	0.0004256272
216.25	0.0004146292
216.875	0.0004348262
217.5	0.0004166357
218.125	0.000442175
218.75	0.0004312533
219.375	0.0004651696
220	0.0004877863
220.625	0.0004884807
221.25	0.0005023457
221.875	0.0004802786
222.5	0.0004751477
223.125	0.00045
223.75	0.0004514796
224.375	0.0004529887
225	0.0004323647
225.625	0.0004387769
226.25	0.0004413958
226.875	0.0004533688
227.5	0.0004576533
228.125	0.0004833794
228.75	0.0004873209
229.375	0.0004675989
230	0.000462038
230.625	0.0004249366
231.25	0.000433187
231.875	0.0004069021
232.5	0.0004074272
233.125	0.0004016369
233.75	0.0003924947
234.375	0.00038857
235	0.0003794395
235.625	0.0003928739
236.25	0.0003492682
236.875	0.0003300752
237.5	0.0002957548
238.125	0.000265163
238.75	0.0002660014
239.375	0.00026071
240	0.0002634316
240.625	0.0002431146
241.25	0.0002048732
241.875	0.0002095592
242.5	0.0001955703
243.125	0.0001903846
243.75	0.0001988119
244.375	0.0002055245
245	0.0002160266
245.625	0.0002231535
246.25	0.0002564717
246.875	0.0002634859
247.5	0.0002694711
248.125	0.0002597538
248.75	0.0002508559
249.375	0.000254703
250	0.0002351187
250.625	0.0002696756
251.25	0.0002634994
251.875	0.0002807487
252.5	0.0002991981
253.125	0.0003146191
253.75	0.0003247289
254.375	0.0003132022
255	0.0003188991
255.625	0.0002868283
256.25	0.000276288
256.875	0.0002708832
257.5	0.0002877172
258.125	0.0003166166
258.75	0.0003144534
259.375	0.000340062
260	0.0003420793
260.625	0.0003405273
261.25	0.0003329834
261.875	0.0003416541
262.5	0.0003362924
263.125	0.0003296907
263.75	0.0003401036
264.375	0.0003308736
265	0.0003434481
265.625	0.0003288722
266.25	0.0003340623
266.875	0.0003209496
267.5	0.0002909418
268.125	0.0002779701
268.75	0.0002828507
269.375	0.0002656465
270	0.0002695879
270.625	0.0002621368
271.25	0.0002598324
271.875	0.0002393299
272.5	0.0002385782
273.125	0.0002410704
273.75	0.0002135373
274.375	0.0001977115
275	0.0001753343
275.625	0.0001502016
276.25	0.0001595183
276.875	0.0001562755
277.5	0.0001983198
278.125	0.0001873566
278.75	0.0002045142
279.375	0.0002102095
280	0.0001998212
280.625	0.0001852202
281.25	0.0001687327
281.875	0.0001782406
282.5	0.0001331993
283.125	0.0001538421
283.75	0.0001364777
284.375	0.0001697343
285	0.0001555823
285.625	0.0001497098
286.25	0.0001577109
286.875	0.0001298551
287.5	0.0001308214
288.125	0.0001288713
288.75	0.0001314446
289.375	0.0001360433
290	0.0001127564
290.625	0.0001424801
291.25	0.0001063905
291.875	0.0001469557
292.5	0.0001223223
293.125	0.0001382328
293.75	0.0001339051
294.375	0.0001300015
295	0.000148132
295.625	0.0001469181
296.25	0.0001477342
296.875	0.0001398848
297.5	0.0001533053
298.125	0.0001391453
298.75	0.0001294593
299.375	0.0001432851
300	0.0001136936
300.625	0.0001161433
301.25	9.003779e-5
301.875	9.886239e-5
302.5	7.191332e-5
303.125	6.987178e-5
303.75	9.161942e-5
304.375	7.712693e-5
305	9.766238e-5
305.625	7.6791e-5
306.25	9.948257e-5
306.875	5.192912e-5
307.5	7.057576e-5
308.125	6.664605e-5
308.75	3.613107e-5
309.375	4.067546e-5
310	3.578841e-5
310.625	4.671429e-5
311.25	5.391922e-5
311.875	6.418862e-5
312.5	9.229346e-5
313.125	6.074739e-5
313.75	9.56817e-5
314.375	8.327199e-5
315	9.916562e-5
315.625	8.575361e-5
316.25	9.908227e-5
316.875	8.074714e-5
317.5	7.295438e-5
318.125	8.050025e-5
318.75	7.219194e-5
319.375	8.187562e-5
320	6.450882e-5
320.625	6.986726e-5
321.25	7.185381e-5
321.875	4.252168e-5
322.5	7.011086e-5
323.125	5.381313e-5
323.75	6.611408e-5
324.375	7.658763e-5
325	7.228063e-5
325.625	9.213641e-5
326.25	8.348146e-5
326.875	8.757051e-5
327.5	8.321364e-5
328.125	9.381857e-5
328.75	0.0001263878
329.375	0.0001212295
330	0.0001589491
330.625	0.0001512104
331.25	0.0001668665
331.875	0.0001635706
332.5	0.0001714435
333.125	0.0001772763
333.75	0.0001336546
334.375	0.0001723434
335	0.0001446675
335.625	0.000151795
336.25	0.0001390035
336.875	0.0001578485
337.5	0.000162877
338.125	0.0001544793
338.75	0.0002049777
339.375	0.0001841406
340	0.0001947615
340.625	0.0001973536
341.25	0.0001800638
341.875	0.0002094414
342.5	0.0001854577
343.125	0.0002333436
343.75	0.0002185905
344.375	0.0002307511
345	0.0002438773
345.625	0.0002569546
346.25	0.0002449218
346.875	0.000240748
347.5	0.0002699963
348.125	0.0002437451
348.75	0.0002642126
349.375	0.0002755882
350	0.0002551866
350.625	0.0002628471
351.25	0.0002218732
351.875	0.0002393514
352.5	0.0002167
353.125	0.0002250975
353.75	0.0002216145
354.375	0.0002027604
355	0.0002295398
355.625	0.0002160244
356.25	0.0002388528
356.875	0.0002280747
357.5	0.0002210533
358.125	0.000218495
358.75	0.0001862317
359.375	0.0002272048
360	0.0001894961
360.625	0.0002047274
361.25	0.000203274
361.875	0.0001898121
362.5	0.0002102132
363.125	0.0002003126
363.75	0.0002297243
364.375	0.0001819108
365	0.0001992323
365.625	0.0001756598
366.25	0.0001680517
366.875	0.0001650557
367.5	0.0001391885
368.125	0.0001834113
368.75	0.0001388693
369.375	0.0001627838
370	0.0001913176
370.625	0.0001718436
371.25	0.0001989662
371.875	0.0001949259
372.5	0.0002267403
373.125	0.000219124
373.75	0.0002521404
374.375	0.0002668095
375	0.0002432047
375.625	0.0002560376
376.25	0.0002373931
376.875	0.0002609717
377.5	0.0002578519
378.125	0.0002771814
378.75	0.0002968271
379.375	0.0002888363
380	0.0003035649
380.625	0.0003025372
381.25	0.0002978324
381.875	0.0002789631
382.5	0.0002781101
383.125	0.0002697398
383.75	0.0002629239
384.375	0.0002714248
385	0.0002465344
385.625	0.0002622635
386.25	0.0002647832
386.875	0.0002704573
387.5	0.0002801277
388.125	0.0002678914
388.75	0.0002785032
389.375	0.0002637192
390	0.0002633597
390.625	0.0002737805
391.25	0.0002454328
391.875	0.0002436115
392.5	0.0002317983
393.125	0.0002376629
393.75	0.0002144737
394.375	0.0002224656
395	0.0002081339
395.625	0.0001715215
396.25	0.0001853332
396.875	0.0001752254
397.5	0.0001739058
398.125	0.0001578498
398.75	0.000152229
399.375	0.000138686
400	0.0001155357
400.625	0.0001243942
401.25	0.000132274
401.875	0.000136924
402.5	0.0001312454
403.125	0.0001552659
403.75	0.0001726269
404.375	0.0001703351
405	0.000198551
405.625	0.0001877644
406.25	0.0001706496
406.875	0.0001698209
407.5	0.0001855157
408.125	0.0001729451
408.75	0.0001729898
409.375	0.0001692186
410	0.0001652314
410.625	0.000152746
411.25	0.0001758849
411.875	0.0001770941
412.5	0.0001737038
413.125	0.0001656415
413.75	0.0001651947
414.375	0.0001517187
415	0.0001503443
415.625	0.0001560498
416.25	0.0001372432
416.875	0.0001429945
417.5	0.0001589881
418.125	0.0001477388
418.75	0.000157293
419.375	0.0001584803
420	0.0001610531
420.625	0.0001437778
421.25	0.0001492599
421.875	0.0001527823
422.5	0.0001377749
423.125	0.0001355453
423.75	0.0001335443
424.375	0.0001101843
425	9.44441e-5
425.625	8.8198e-5
426.25	6.753157e-5
426.875	4.772689e-5
427.5	5.874435e-5
428.125	5.864322e-5
428.75	3.695915e-5
429.375	4.277314e-5
430	5.014089e-5
430.625	5.075496e-5
431.25	3.328805e-5
431.875	6.082548e-5
432.5	3.391623e-5
433.125	4.821655e-5
433.75	3.052346e-5
434.375	6.491469e-5
435	6.134423e-5
435.625	6.884163e-5
436.25	8.523235e-5
436.875	7.581933e-5
437.5	7.742119e-5
438.125	7.842445e-5
438.75	7.653241e-5
439.375	5.244487e-5
440	3.48477e-5
440.625	3.147572e-5
441.25	2.451558e-5
441.875	3.619039e-5
442.5	3.305809e-5
443.125	3.395236e-5
443.75	1.706715e-5
444.375	2.737388e-5
445	2.952899e-5
445.625	3.270054e-5
446.25	4.298633e-5
446.875	2.748217e-5
447.5	3.135721e-5
448.125	2.400072e-5
448.75	4.818114e-5
449.375	2.170386e-5
450	3.948169e-5
450.625	3.180448e-5
451.25	2.21315e-5
451.875	4.304132e-5
452.5	2.691767e-5
453.125	3.927175e-5
453.75	3.785633e-5
454.375	5.66911e-5
455	5.98975e-5
455.625	5.133945e-5
456.25	6.605624e-5
456.875	5.246675e-5
457.5	7.698876e-5
458.125	8.947363e-5
458.75	7.599746e-5
459.375	7.851816e-5
460	6.623727e-5
460.625	6.265462e-5
461.25	3.755722e-5
461.875	4.871862e-5
462.5	3.14139e-5
463.125	3.02162e-5
463.75	4.490385e-5
464.375	4.574555e-5
465	5.637827e-5
465.625	2.916355e-5
466.25	6.185629e-5
466.875	3.499681e-5
467.5	2.5327e-5
468.125	2.518665e-5
468.75	2.214055e-5
469.375	6.272117e-6
470	2.093902e-5
470.625	2.831268e-5
471.25	2.930533e-5
471.875	2.614156e-5
472.5	3.720355e-5
473.125	3.423318e-5
473.75	3.990563e-5
474.375	2.675699e-5
475	3.857377e-5
475.625	1.936294e-5
476.25	2.465497e-5
476.875	2.160143e-5
477.5	9.466406e-6
478.125	2.618067e-5
478.75	2.412268e-5
479.375	4.107539e-5
480	5.960026e-5
480.625	5.717084e-5
481.25	7.665535e-5
481.875	7.856157e-5
482.5	7.855308e-5
483.125	9.96042e-5
483.75	8.269752e-5
484.375	0.0001050399
485	8.301106e-5
485.625	0.0001178053
486.25	8.474561e-5
486.875	0.0001212245
487.5	0.000119828
488.125	0.0001383963
488.75	0.0001452791
489.375	0.0001512351
490	0.0001249262
490.625	0.000124082
491.25	0.0001247393
491.875	0.0001178263
492.5	0.0001074968
493.125	0.0001166798
493.75	8.737727e-5
494.375	0.0001035088
495	8.596438e-5
495.625	0.000119997
496.25	9.276104e-5
496.875	0.0001173189
497.5	0.0001002091
498.125	0.0001057848
498.75	0.0001040995
499.375	0.0001057466
500	0.0001082272
500.625	9.902763e-5
501.25	9.790376e-5
501.875	0.0001040761
502.5	9.194496e-5
503.125	9.880776e-5
503.75	8.515128e-5
504.375	8.940937e-5
505	7.9444e-5
505.625	8.174143e-5
506.25	6.432046e-5
506.875	6.708904e-5
507.5	7.328279e-5
508.125	6.247061e-5
508.75	6.396917e-5
509.375	6.005629e-5
510	3.137379e-5
510.625	4.802933e-5
511.25	3.014198e-5
511.875	3.771488e-5
512.5	2.312157e-5
513.125	4.196548e-5
513.75	3.044065e-5
514.375	4.778931e-5
515	2.476692e-5
515.625	2.291252e-5
516.25	2.815457e-5
516.875	4.176677e-5
517.5	2.051927e-5
518.125	3.940495e-5
518.75	2.843043e-5
519.375	3.101719e-5
520	3.403931e-5
520.625	5.149246e-5
521.25	4.328398e-5
521.875	3.734717e-5
522.5	4.466454e-5
523.125	4.122524e-5
523.75	1.818598e-5
524.375	3.525629e-5
525	1.918336e-5
525.625	3.677908e-5
526.25	2.726882e-5
526.875	4.884736e-5
527.5	3.936589e-5
528.125	4.204194e-5
528.75	4.649365e-5
529.375	5.235391e-5
530	5.463867e-5
530.625	5.753266e-5
531.25	5.438047e-5
531.875	5.322702e-5
532.5	4.828562e-5
533.125	6.352424e-5
533.75	5.597083e-5
534.375	5.915656e-5
535	4.531458e-5
535.625	5.183309e-5
536.25	3.758309e-5
536.875	4.348022e-5
537.5	3.794792e-5
538.125	5.163667e-5
538.75	4.86707e-5
539.375	5.564726e-5
540	5.339086e-5
540.625	4.142545e-5
541.25	6.723358e-5
541.875	5.675706e-5
542.5	7.737845e-5
543.125	5.814393e-5
543.75	7.848645e-5
544.375	4.870982e-5
545	6.81879e-5
545.625	5.411618e-5
546.25	4.984555e-5
546.875	3.280338e-5
547.5	4.323043e-5
548.125	4.004463e-5
548.75	1.228587e-5
549.375	3.078178e-5
550	3.684778e-5
550.625	3.163574e-5
551.25	4.035826e-5
551.875	3.813201e-5
552.5	4.220362e-5
553.125	2.505142e-5
553.75	4.085563e-5
554.375	3.787181e-5
555	3.162191e-5
555.625	4.039656e-5
556.25	2.772646e-5
556.875	2.398047e-5
557.5	1.631118e-5
558.125	3.126391e-5
558.75	2.726579e-5
559.375	2.317004e-5
560	2.299272e-5
560.625	2.262635e-5
561.25	3.121625e-5
561.875	2.053908e-5
562.5	3.707335e-5
563.125	3.355086e-5
563.75	3.963164e-5
564.375	4.342717e-5
565	4.904224e-5
565.625	4.215653e-5
566.25	4.699198e-5
566.875	4.960352e-5
567.5	6.837439e-5
568.125	5.634588e-5
568.75	6.127988e-5
569.375	6.263484e-5
570	5.523672e-5
570.625	6.288503e-5
571.25	4.260626e-5
571.875	4.845032e-5
572.5	5.004872e-5
573.125	6.602189e-5
573.75	5.597924e-5
574.375	6.162657e-5
575	6.370233e-5
575.625	5.728664e-5
576.25	7.721901e-5
576.875	7.379324e-5
577.5	6.48953e-5
578.125	5.370522e-5
578.75	5.947567e-5
579.375	5.635423e-5
580	4.460448e-5
580.625	5.589974e-5
581.25	4.779969e-5
581.875	4.514373e-5
582.5	5.075136e-5
583.125	5.497038e-5
583.75	5.47878e-5
584.375	6.208614e-5
585	5.853903e-5
585.625	7.664094e-5
586.25	6.939069e-5
586.875	7.458832e-5
587.5	7.687404e-5
588.125	7.201196e-5
588.75	7.295491e-5
589.375	8.328358e-5
590	6.794336e-5
590.625	6.134625e-5
591.25	4.78269e-5
591.875	5.460939e-5
592.5	5.039304e-5
593.125	5.786544e-5
593.75	3.639148e-5
594.375	4.300622e-5
595	3.028872e-5
595.625	3.356749e-5
596.25	3.878431e-5
596.875	2.100274e-5
597.5	2.281244e-5
598.125	2.253359e-5
598.75	3.069348e-5
599.375	3.444348e-5
600	4.999357e-5
600.625	5.092396e-5
601.25	7.141306e-5
601.875	7.84557e-5
602.5	7.100938e-5
603.125	8.485621e-5
603.75	0.0001063614
604.375	9.425552e-5
605	9.788003e-5
605.625	0.0001013032
606.25	0.0001035017
606.875	0.0001057049
607.5	0.0001236093
608.125	0.0001198146
608.75	0.0001122522
609.375	0.0001177546
610	0.0001427315
610.625	0.0001484056
611.25	0.0001409968
611.875	0.00014662
612.5	0.0001507879
613.125	0.000126091
613.75	0.0001583625
614.375	0.0001510939
615	0.0001587487
615.625	0.0001435056
616.25	0.0001598605
616.875	0.0001639561
617.5	0.0001887692
618.125	0.0001898501
618.75	0.0001889344
619.375	0.0001945325
620	0.0001809019
620.625	0.0001965676
621.25	0.0001721023
621.875	0.0001672214
622.5	0.0001644783
623.125	0.000152462
623.75	0.0001721621
624.375	0.0001355144
625	0.0001510368
625.625	0.0001220913
626.25	0.0001350066
626.875	0.0001264145
627.5	0.000125551
628.125	0.0001515765
628.75	9.519877e-5
629.375	0.0001298985
630	0.000110108
630.625	0.0001338099
631.25	0.0001134724
631.875	0.000123463
632.5	0.0001334699
633.125	0.000131621
633.75	0.0001529437
634.375	0.0001676255
635	0.0001802397
635.625	0.0001536439
636.25	0.0001642479
636.875	0.0001760025
637.5	0.0001431713
638.125	0.0001781867
638.75	0.0001493851
639.375	0.0001562704
640	0.0001262107
640.625	0.0001577313
641.25	0.000162385
641.875	0.0001581752
642.5	0.0001532268
643.125	0.0001525076
643.75	0.0001558496
644.375	0.0001680063
645	0.0001685658
645.625	0.0001747852
646.25	0.0001523388
646.875	0.000151841
647.5	0.0001634302
648.125	0.0001609239
648.75	0.0001847802
649.375	0.0001510729
650	0.0001705671
650.625	0.00015759
651.25	0.0001644906
651.875	0.0001797259
652.5	0.0001648176
653.125	0.0001521417
653.75	0.0001374753
654.375	0.0001440966
655	0.0001254994
655.625	0.0001139883
656.25	0.0001076316
656.875	9.634843e-5
657.5	0.0001170179
658.125	9.08518e-5
658.75	0.0001447204
659.375	0.0001111929
660	0.0001278469
660.625	0.0001039455
661.25	0.0001315499
661.875	0.0001318562
662.5	0.0001259135
663.125	0.0001519954
663.75	0.0001247403
664.375	0.0001377167
665	0.000137547
665.625	0.0001470558
666.25	0.000153582
666.875	0.0001257256
667.5	0.0001524694
668.125	0.0001357288
668.75	0.0001483876
669.375	0.0001308306
670	0.0001372905
670.625	0.0001104762
671.25	0.0001124446
671.875	0.0001143426
672.5	0.000113711
673.125	0.0001048201
673.75	8.006263e-5
674.375	0.0001090846
675	0.0001043059
675.625	0.0001179094
676.25	0.0001177946
676.875	0.0001204542
677.5	9.512747e-5
678.125	0.0001040416
678.75	0.0001128152
679.375	0.0001105432
680	8.887464e-5
680.625	9.129242e-5
681.25	7.090352e-5
681.875	9.122348e-5
682.5	8.091152e-5
683.125	9.239093e-5
683.75	7.474222e-5
684.375	6.599414e-5
685	5.799257e-5
685.625	7.33099e-5
686.25	4.466255e-5
686.875	5.120154e-5
687.5	1.980293e-5
688.125	2.968698e-5
688.75	2.162985e-5
689.375	3.132146e-5
690	3.329304e-5
690.625	4.315128e-5
691.25	2.146475e-5
691.875	4.243606e-5
692.5	4.85411e-5
693.125	5.671601e-5
693.75	6.364039e-5
694.375	5.211051e-5
695	5.132557e-5
695.625	4.547202e-5
696.25	5.421544e-5
696.875	5.548508e-5
697.5	3.587511e-5
698.125	3.689882e-5
698.75	5.863637e-5
699.375	5.100369e-5
700	3.848183e-5
700.625	5.438947e-5
701.25	4.77699e-5
701.875	4.71516e-5
702.5	7.587783e-5
703.125	6.602509e-5
703.75	4.89347e-5
704.375	5.209784e-5
705	5.499083e-5
705.625	6.246354e-5
706.25	4.709848e-5
706.875	5.714363e-5
707.5	5.467055e-5
708.125	2.849481e-5
708.75	6.590955e-5
709.375	7.474537e-5
710	7.461553e-5
710.625	7.556787e-5
711.25	8.805964e-5
711.875	9.442359e-5
712.5	9.901592e-5
713.125	0.0001148929
713.75	0.0001101056
714.375	9.761982e-5
715	0.0001091734
715.625	0.0001118049
716.25	0.0001140196
716.875	0.0001042463
717.5	0.0001156985
718.125	0.0001061488
718.75	0.000121925
719.375	0.0001321821
720	0.0001240952
720.625	0.0001166415
721.25	0.000116046
721.875	0.0001097186
722.5	0.0001063753
723.125	0.0001238209
723.75	0.000107941
724.375	0.000105581
725	0.000133634
725.625	0.0001260241
726.25	0.0001443214
726.875	0.0001460994
727.5	0.0001582368
728.125	0.0001627367
728.75	0.0001612256
729.375	0.0001947366
730	0.0001857442
730.625	0.0001792361
731.25	0.0001814455
731.875	0.0001875799
732.5	0.0001781623
733.125	0.0001803853
733.75	0.00020718
734.375	0.0001709581
735	0.0001835452
735.625	0.0001865261
736.25	0.0001953648
736.875	0.0001885883
737.5	0.0001864707
738.125	0.0001931232
738.75	0.000169673
739.375	0.0001780638
740	0.0001745962
740.625	0.0001718282
741.25	0.0001582756
741.875	0.0001712235
742.5	0.000188384
743.125	0.0001827748
743.75	0.0002096143
744.375	0.0001963944
745	0.0001888414
745.625	0.0001926584
746.25	0.0001835527
746.875	0.0001975746
747.5	0.0001777432
748.125	0.0001854314
748.75	0.0001626957
749.375	0.000168539
750	0.00017063
750.625	0.0001564669
751.25	0.0001605463
751.875	0.0001485123
752.5	0.0001633287
753.125	0.000157059
753.75	0.0001546798
754.375	0.000173266
755	0.0001592101
755.625	0.0001581414
756.25	0.0001800547
756.875	0.0001637277
757.5	0.0001849156
758.125	0.0001801169
758.75	0.0002008014
759.375	0.0001832948
760	0.0002087116
760.625	0.0002205422
761.25	0.0002158132
761.875	0.000216288
762.5	0.0002080693
763.125	0.000228561
763.75	0.0001901593
764.375	0.0002118069
765	0.0001958012
765.625	0.0001811551
766.25	0.0001907599
766.875	0.0001869974
767.5	0.0002024575
768.125	0.0001789188
768.75	0.000201505
769.375	0.0001907517
770	0.0001779304
770.625	0.0002081408
771.25	0.0001830552
771.875	0.0001965484
772.5	0.0001699335
773.125	0.0001979024
773.75	0.0001866902
774.375	0.0001927713
775	0.0001947266
775.625	0.0001930342
776.25	0.0001854993
776.875	0.0001991663
777.5	0.0001962935
778.125	0.0001783886
778.75	0.0001843222
779.375	0.0001734066
780	0.0001551359
780.625	0.000167432
781.25	0.000153073
781.875	0.0001539733
782.5	0.0001391312
783.125	0.0001487663
783.75	0.0001501618
784.375	0.0001528885
785	0.0001644422
785.625	0.0001670199
786.25	0.0001534432
786.875	0.0001679538
787.5	0.0001718042
788.125	0.0001695509
788.75	0.0001634576
789.375	0.0001607768
790	0.0001685302
790.625	0.0001476313
791.25	0.0001829839
791.875	0.0001606505
792.5	0.0001643188
793.125	0.0001517744
793.75	0.00016462
794.375	0.0001402401
795	0.0001487929
795.625	0.0001322398
796.25	0.0001170891
796.875	9.870729e-5
797.5	0.000118936
798.125	0.0001064483
798.75	0.0001001646
799.375	9.471521e-5
800	0.0001075853
800.625	8.993715e-5
801.25	0.0001132711
801.875	0.0001052214
802.5	0.0001004777
803.125	9.007828e-5
803.75	9.069462e-5
804.375	9.247633e-5
805	8.77479e-5
805.625	7.915005e-5
806.25	7.787953e-5
806.875	6.919527e-5
807.5	6.808316e-5
808.125	7.859831e-5
808.75	7.184771e-5
809.375	6.360986e-5
810	5.054769e-5
810.625	5.393617e-5
811.25	4.217165e-5
811.875	5.570255e-5
812.5	3.902675e-5
813.125	3.330399e-5
813.75	1.790105e-5
814.375	3.035644e-5
815	3.18666e-5
815.625	4.540194e-5
816.25	4.230274e-5
816.875	4.814549e-5
817.5	3.597015e-5
818.125	5.704807e-5
818.75	4.565031e-5
819.375	4.863446e-5
820	2.970321e-5
820.625	3.840833e-5
821.25	1.777257e-5
821.875	4.796369e-5
822.5	3.100769e-5
823.125	1.595092e-5
823.75	2.035585e-5
824.375	2.962732e-5
825	2.473625e-5
825.625	1.59338e-5
826.25	3.44371e-5
826.875	1.196032e-5
827.5	4.738342e-5
828.125	4.080584e-5
828.75	4.57165e-5
829.375	3.751652e-5
830	5.699044e-5
830.625	5.90477e-5
831.25	3.51479e-5
831.875	6.372361e-5
832.5	2.873123e-5
833.125	4.662465e-5
833.75	3.74114e-5
834.375	5.847448e-5
835	3.78797e-5
835.625	2.926473e-5
836.25	5.152853e-5
836.875	3.711258e-5
837.5	7.047167e-5
838.125	5.946635e-5
838.75	7.25264e-5
839.375	6.56936e-5
840	6.096343e-5
840.625	8.757627e-5
841.25	6.634269e-5
841.875	8.966031e-5
842.5	6.091853e-5
843.125	7.650662e-5
843.75	7.378214e-5
844.375	8.721144e-5
845	7.272064e-5
845.625	7.283511e-5
846.25	7.422097e-5
846.875	5.687956e-5
847.5	8.353969e-5
848.125	8.011766e-5
848.75	7.03231e-5
849.375	5.654737e-5
850	5.73818e-5
850.625	7.372682e-5
851.25	7.701039e-5
851.875	8.450719e-5
852.5	9.959728e-5
853.125	0.0001017202
853.75	9.48196e-5
854.375	0.0001217996
855	0.0001234081
855.625	0.0001296137
856.25	0.000111624
856.875	0.0001390449
857.5	0.0001077416
858.125	0.0001250552
858.75	0.0001290356
859.375	0.0001226356
860	0.0001194891
860.625	0.0001102754
861.25	0.0001364668
861.875	0.0001212906
862.5	0.0001212786
863.125	0.0001163996
863.75	0.0001140604
864.375	0.0001117662
865	0.0001053132
865.625	0.0001243039
866.25	0.000102085
866.875	0.0001095292
867.5	0.0001075765
868.125	0.0001250416
868.75	0.0001317598
869.375	0.0001309727
870	0.0001442442
870.625	0.0001354413
871.25	0.000145367
871.875	0.0001353342
872.5	0.000150173
873.125	0.0001276292
873.75	0.0001307789
874.375	0.000126749
875	0.0001376737
875.625	0.0001327482
876.25	0.0001389519
876.875	0.0001254449
877.5	0.0001555916
878.125	0.0001324669
878.75	0.0001520069
879.375	0.0001493375
880	0.0001613569
880.625	0.0001393639
881.25	0.0001644836
881.875	0.0001671805
882.5	0.0001702144
883.125	0.0001600681
883.75	0.0001863728
884.375	0.0001730582
885	0.0001905411
885.625	0.0001903203
886.25	0.0002087197
886.875	0.0001857119
887.5	0.0001900277
888.125	0.000198958
888.75	0.0001905528
889.375	0.0001739565
890	0.0001804132
890.625	0.0001600294
891.25	0.000147346
891.875	0.0001590471
892.5	0.0001544191
893.125	0.0001641376
893.75	0.0001374874
894.375	0.0001516527
895	0.0001363683
895.625	0.0001468651
896.25	0.0001342421
896.875	0.0001402485
897.5	0.0001207149
898.125	0.0001269591
898.75	0.000121491
899.375	0.000140717
900	0.0001278377
900.625	0.0001336287
901.25	0.0001264646
901.875	0.000138747
902.5	0.0001218385
903.125	0.000130514
903.75	0.0001086516
904.375	0.0001301066
905	8.823508e-5
905.625	0.0001167832
906.25	0.0001048778
906.875	0.0001044039
907.5	9.242632e-5
908.125	9.768e-5
908.75	9.799244e-5
909.375	0.0001107839
910	9.965979e-5
910.625	0.0001316848
911.25	0.0001240217
911.875	0.0001178626
912.5	0.0001284258
913.125	0.0001222289
913.75	0.000126232
914.375	0.0001127866
915	0.0001324706
915.625	0.0001168457
916.25	0.0001202903
916.875	0.0001186671
917.5	0.0001287203
918.125	0.0001146689
918.75	0.0001176648
919.375	0.0001092278
920	0.0001125472
920.625	8.098692e-5
921.25	8.614248e-5
921.875	7.646494e-5
922.5	8.078778e-5
923.125	5.405405e-5
923.75	8.711946e-5
924.375	4.148067e-5
925	7.133593e-5
925.625	5.760482e-5
926.25	7.239121e-5
926.875	6.495051e-5
927.5	6.172097e-5
928.125	6.937129e-5
928.75	5.76872e-5
929.375	6.387177e-5
930	6.533707e-5
930.625	5.370453e-5
931.25	6.127526e-5
931.875	4.493811e-5
932.5	5.626275e-5
933.125	5.237206e-5
933.75	5.561401e-5
934.375	4.361023e-5
935	4.206598e-5
935.625	5.870168e-5
936.25	4.206037e-5
936.875	4.517598e-5
937.5	4.387484e-5
938.125	4.45122e-5
938.75	2.723658e-5
939.375	4.268311e-5
940	6.109937e-5
940.625	5.194684e-5
941.25	6.446675e-5
941.875	6.945484e-5
942.5	6.324797e-5
943.125	6.47674e-5
943.75	5.168776e-5
944.375	7.720284e-5
945	4.106949e-5
945.625	6.376793e-5
946.25	4.675164e-5
946.875	5.385532e-5
947.5	2.327943e-5
948.125	4.259691e-5
948.75	2.89953e-5
949.375	2.126789e-5
950	2.609492e-5
950.625	1.426439e-5
951.25	1.716521e-5
951.875	1.657581e-5
952.5	2.20231e-5
953.125	2.298444e-5
953.75	1.57242e-5
954.375	1.511073e-5
955	2.877663e-5
955.625	1.630417e-5
956.25	2.796453e-5
956.875	1.874609e-5
957.5	1.541897e-5
958.125	1.604897e-5
958.75	2.670004e-6
959.375	8.807366e-6
960	1.072911e-5
960.625	2.025242e-5
961.25	3.365724e-5
961.875	3.192008e-5
962.5	3.04554e-5
963.125	3.132765e-5
963.75	2.41894e-5
964.375	3.438335e-5
965	3.602215e-5
965.625	5.128648e-5
966.25	2.813683e-5
966.875	4.088811e-5
967.5	3.033053e-5
968.125	5.005818e-5
968.75	3.639272e-5
969.375	3.406532e-5
970	4.373565e-5
970.625	2.080879e-5
971.25	2.915333e-5
971.875	3.566674e-5
972.5	3.494754e-5
973.125	2.897538e-5
973.75	2.568894e-5
974.375	2.888897e-5
975	1.313993e-5
975.625	4.48057e-5
976.25	3.970509e-5
976.875	4.445949e-5
977.5	4.526748e-5
978.125	5.518656e-5
978.75	6.754019e-5
979.375	6.908186e-5
980	8.100678e-5
980.625	6.179273e-5
981.25	7.936604e-5
981.875	6.63887e-5
982.5	7.946769e-5
983.125	7.740894e-5
983.75	7.593216e-5
984.375	8.160353e-5
985	7.148861e-5
985.625	8.367179e-5
986.25	8.561907e-5
986.875	7.523821e-5
987.5	7.614966e-5
988.125	7.442509e-5
988.75	8.01857e-5
989.375	6.774746e-5
990	7.469279e-5
990.625	7.124934e-5
991.25	8.180946e-5
991.875	7.477927e-5
992.5	8.785009e-5
993.125	7.880075e-5
993.75	7.730465e-5
994.375	9.067362e-5
995	8.558528e-5
995.625	8.683762e-5
996.25	9.719175e-5
996.875	8.944463e-5
997.5	7.873733e-5
998.125	7.983314e-5
998.75	9.401541e-5
999.375	6.961376e-5
1000	7.19798e-5
