Source File Name:	Analyzer
Signal:	FFT - Vib Velocity - Magnitude

Frequency	Magnitude
[ Hz ]	[ m/s ]
20	0.0008676018
20.625	0.0007725113
21.25	0.0006952995
21.875	0.0006470802
22.5	0.0005923142
23.125	0.0005608675
23.75	0.0005207541
24.375	0.0004809532
25	0.0004556552
25.625	0.0004262392
26.25	0.0004034674
26.875	0.0003977381
27.5	0.0004027977
28.125	0.0004381744
28.75	0.0004829247
29.375	0.0005349638
30	0.0005835122
30.625	0.0006175247
31.25	0.0006316615
31.875	0.0006293257
32.5	0.0006147752
33.125	0.0006033988
33.75	0.0005884142
34.375	0.0005732539
35	0.0005577222
35.625	0.0005430738
36.25	0.0005301246
36.875	0.0005161674
37.5	0.0005004236
38.125	0.0004919667
38.75	0.0004758712
39.375	0.0004687502
40	0.0004548013
40.625	0.0004537427
41.25	0.0004529826
41.875	0.0004459928
42.5	0.0004473271
43.125	0.0004506283
43.75	0.0004475427
44.375	0.0004452662
45	0.0004349889
45.625	0.0004303694
46.25	0.0004241285
46.875	0.0004163325
47.5	0.0004085126
48.125	0.0004091173
48.75	0.0004058411
49.375	0.0004069194
50	0.0004047034
50.625	0.0004071422
51.25	0.0004134619
51.875	0.0004176019
52.5	0.0004275987
53.125	0.0004277593
53.75	0.0004340696
54.375	0.0004348039
55	0.0004346063
55.625	0.000442727
56.25	0.0004363154
56.875	0.0004422897
57.5	0.0004313349
58.125	0.0004330861
58.75	0.0004403679
59.375	0.0004485765
60	0.0004473832
60.625	0.0004483741
61.25	0.0004541125
61.875	0.0004681839
62.5	0.0004695604
63.125	0.0004725904
63.75	0.0004779633
64.375	0.000483426
65	0.0004860135
65.625	0.0004858527
66.25	0.0004838866
66.875	0.0004847251
67.5	0.0004835151
68.125	0.0004776625
68.75	0.0004766808
69.375	0.0004775382
70	0.0004777115
70.625	0.0004747215
71.25	0.000477039
71.875	0.0004774192
72.5	0.0004780896
73.125	0.0004808887
73.75	0.0004783894
74.375	0.0004820336
75	0.0004815626
75.625	0.0004794594
76.25	0.000476734
76.875	0.0004706988
77.5	0.0004711302
78.125	0.000461883
78.75	0.0004585181
79.375	0.0004556237
80	0.0004511023
80.625	0.0004497943
81.25	0.00044887
81.875	0.0004482356
82.5	0.0004499283
83.125	0.0004487798
83.75	0.000446781
84.375	0.0004468213
85	0.0004426048
85.625	0.000438623
86.25	0.0004325783
86.875	0.0004258754
87.5	0.0004249992
88.125	0.0004161781
88.75	0.0004133581
89.375	0.0004100839
90	0.0004036
90.625	0.0004005503
91.25	0.000396921
91.875	0.0003986912
92.5	0.0003971556
93.125	0.0003913355
93.75	0.0003937435
94.375	0.0003901146
95	0.0003926582
95.625	0.0003883966
96.25	0.0003881387
96.875	0.0003884748
97.5	0.0003858612
98.125	0.0003805349
98.75	0.000377342
99.375	0.0003716852
100	0.0003707953
100.625	0.0003688963
101.25	0.0003665712
101.875	0.000365089
102.5	0.0003646401
103.125	0.0003626555
103.75	0.0003671318
104.375	0.0003668124
105	0.0003739858
105.625	0.0003730475
106.25	0.0003781814
106.875	0.0003839867
107.5	0.000381792
108.125	0.0003842455
108.75	0.0003835534
109.375	0.0003850962
110	0.0003875497
110.625	0.0003830077
111.25	0.0003850729
111.875	0.0003861607
112.5	0.000384553
113.125	0.0003819901
113.75	0.0003813423
114.375	0.00038479
115	0.0003881925
115.625	0.0003897854
116.25	0.0003909248
116.875	0.0003938051
117.5	0.0003939653
118.125	0.0003949824
118.75	0.0003914733
119.375	0.0003961018
120	0.0003938567
120.625	0.0003911489
121.25	0.0003908692
121.875	0.0003869126
122.5	0.0003864282
123.125	0.000383821
123.75	0.000379558
124.375	0.0003861643
125	0.0003858715
125.625	0.0003914745
126.25	0.000398674
126.875	0.0004052742
127.5	0.0004127793
128.125	0.0004183314
128.75	0.0004248719
129.375	0.0004345402
130	0.0004430621
130.625	0.0004512843
131.25	0.0004579381
131.875	0.000469163
132.5	0.000482995
133.125	0.0004951831
133.75	0.0005088735
134.375	0.0005284096
135	0.0005490973
135.625	0.0005747627
136.25	0.000593497
136.875	0.0006240878
137.5	0.000652236
138.125	0.0006776061
138.75	0.0007065819
139.375	0.0007319779
140	0.0007585353
140.625	0.0007876375
141.25	0.0008087917
141.875	0.0008361808
142.5	0.000860132
143.125	0.0008845514
143.75	0.0009029759
144.375	0.0009248781
145	0.0009477659
145.625	0.0009662405
146.25	0.000980095
146.875	0.0009963065
147.5	0.001007755
148.125	0.001008123
148.75	0.001003641
149.375	0.0009956933
150	0.0009805685
150.625	0.0009508476
151.25	0.0009139333
151.875	0.0008704101
152.5	0.0008149328
153.125	0.0007535129
153.75	0.000693006
154.375	0.0006262466
155	0.0005658271
155.625	0.0004971859
156.25	0.0004429434
156.875	0.0003922144
157.5	0.0003424205
158.125	0.0002968438
158.75	0.0002600366
159.375	0.0002278753
160	0.000201861
160.625	0.0001709173
161.25	0.0001502287
161.875	0.0001322873
162.5	0.0001131502
163.125	9.282115e-5
163.75	7.599396e-5
164.375	6.090996e-5
165	4.721789e-5
165.625	3.863459e-5
166.25	4.039382e-5
166.875	5.154642e-5
167.5	6.620432e-5
168.125	8.367709e-5
168.75	0.0001042377
169.375	0.0001191653
170	0.0001347939
170.625	0.0001560517
171.25	0.0001675784
171.875	0.000179279
172.5	0.0001968957
173.125	0.0002042404
173.75	0.0002124963
174.375	0.0002179026
175	0.0002264787
175.625	0.0002360069
176.25	0.0002380909
176.875	0.0002418322
177.5	0.0002505581
178.125	0.0002549476
178.75	0.0002604021
179.375	0.0002686903
180	0.0002767255
180.625	0.0002878208
181.25	0.0002944087
181.875	0.0003028252
182.5	0.0003196466
183.125	0.0003260267
183.75	0.0003351168
184.375	0.0003491714
185	0.0003557169
185.625	0.0003680046
186.25	0.0003696156
186.875	0.000377044
187.5	0.0003811754
188.125	0.0003787017
188.75	0.0003789536
189.375	0.0003800338
190	0.0003802527
190.625	0.0003784467
191.25	0.0003726353
191.875	0.00037254
192.5	0.0003699184
193.125	0.0003696952
193.75	0.0003632098
194.375	0.0003612394
195	0.0003583357
195.625	0.0003581644
196.25	0.0003492355
196.875	0.0003475889
197.5	0.0003416024
198.125	0.0003367087
198.75	0.0003322974
199.375	0.0003249229
200	0.0003212237
200.625	0.0003189976
201.25	0.0003119376
201.875	0.00031308
202.5	0.0003049129
203.125	0.0003054165
203.75	0.0003003884
204.375	0.0002994174
205	0.000297987
205.625	0.0002949319
206.25	0.0002901575
206.875	0.0002840785
207.5	0.0002788158
208.125	0.0002737641
208.75	0.0002619459
209.375	0.0002568141
210	0.0002480683
210.625	0.0002436807
211.25	0.0002371523
211.875	0.0002322516
212.5	0.0002330404
213.125	0.0002380392
213.75	0.0002357446
214.375	0.0002445858
215	0.0002474913
215.625	0.0002536393
216.25	0.0002585172
216.875	0.0002577778
217.5	0.0002615814
218.125	0.0002651793
218.75	0.0002664097
219.375	0.0002698829
220	0.0002727095
220.625	0.0002848395
221.25	0.0002911745
221.875	0.000303755
222.5	0.0003108585
223.125	0.0003262197
223.75	0.0003386663
224.375	0.0003467829
225	0.000359008
225.625	0.0003736019
226.25	0.0003825634
226.875	0.0003924656
227.5	0.0003987467
228.125	0.0004086895
228.75	0.0004192237
229.375	0.0004262863
230	0.0004327538
230.625	0.0004446859
231.25	0.0004537071
231.875	0.0004643727
232.5	0.0004689943
233.125	0.0004827915
233.75	0.0004935734
234.375	0.0005010429
235	0.0005106041
235.625	0.0005149941
236.25	0.0005239602
236.875	0.0005283713
237.5	0.0005288267
238.125	0.0005341643
238.75	0.0005335088
239.375	0.0005357992
240	0.0005335315
240.625	0.0005332625
241.25	0.0005363284
241.875	0.0005383116
242.5	0.0005397262
243.125	0.0005421093
243.75	0.0005463283
244.375	0.0005520481
245	0.0005551093
245.625	0.0005589471
246.25	0.000564709
246.875	0.0005650637
247.5	0.0005671813
248.125	0.0005684259
248.75	0.0005667842
249.375	0.0005696855
250	0.0005664621
250.625	0.0005676551
251.25	0.0005687717
251.875	0.0005684221
252.5	0.0005730597
253.125	0.0005722553
253.75	0.0005799771
254.375	0.0005806323
255	0.0005800803
255.625	0.0005837264
256.25	0.0005834222
256.875	0.0005831055
257.5	0.0005803431
258.125	0.0005762585
258.75	0.0005749321
259.375	0.0005680406
260	0.000561812
260.625	0.000556011
261.25	0.0005516199
261.875	0.0005469
262.5	0.0005436048
263.125	0.0005357888
263.75	0.000537197
264.375	0.0005320625
265	0.0005268954
265.625	0.0005206648
266.25	0.0005153294
266.875	0.0005106513
267.5	0.0004995177
268.125	0.0004899352
268.75	0.000480577
269.375	0.0004658511
270	0.0004580554
270.625	0.0004406568
271.25	0.0004292298
271.875	0.0004155354
272.5	0.0003994766
273.125	0.0003865013
273.75	0.0003763809
274.375	0.0003642481
275	0.0003530723
275.625	0.0003373173
276.25	0.0003268997
276.875	0.0003154586
277.5	0.0003011139
278.125	0.0002838044
278.75	0.0002696771
279.375	0.0002527091
280	0.0002357349
280.625	0.0002128492
281.25	0.0001980977
281.875	0.0001808773
282.5	0.0001680093
283.125	0.0001531259
283.75	0.0001397802
284.375	0.0001326635
285	0.0001211703
285.625	0.000113616
286.25	0.0001041814
286.875	9.591212e-5
287.5	9.500327e-5
288.125	8.456802e-5
288.75	8.158685e-5
289.375	7.917717e-5
290	8.354562e-5
290.625	8.9709e-5
291.25	9.683826e-5
291.875	0.0001059736
292.5	0.0001203349
293.125	0.0001322089
293.75	0.0001444076
294.375	0.0001541327
295	0.000169692
295.625	0.0001814611
296.25	0.0001881788
296.875	0.0001974334
297.5	0.0002029373
298.125	0.0002111415
298.75	0.0002162902
299.375	0.000215301
300	0.0002257896
300.625	0.0002288068
301.25	0.0002334683
301.875	0.0002351608
302.5	0.0002410536
303.125	0.0002481137
303.75	0.0002527152
304.375	0.0002563275
305	0.0002601493
305.625	0.0002636836
306.25	0.0002664321
306.875	0.0002627005
307.5	0.000262717
308.125	0.0002583793
308.75	0.0002529042
309.375	0.000245971
310	0.0002407278
310.625	0.0002341091
311.25	0.0002310319
311.875	0.0002208309
312.5	0.0002180027
313.125	0.0002147607
313.75	0.0002045242
314.375	0.0001997899
315	0.0001947353
315.625	0.000188924
316.25	0.0001842163
316.875	0.0001705543
317.5	0.000165934
318.125	0.0001560439
318.75	0.0001434656
319.375	0.0001323511
320	0.0001211946
320.625	0.0001135309
321.25	0.000101066
321.875	9.032666e-5
322.5	8.415635e-5
323.125	7.77501e-5
323.75	6.954987e-5
324.375	6.559714e-5
325	6.35814e-5
325.625	6.450513e-5
326.25	6.425676e-5
326.875	6.736403e-5
327.5	7.305839e-5
328.125	8.239036e-5
328.75	8.419488e-5
329.375	9.779679e-5
330	0.000106721
330.625	0.0001138097
331.25	0.0001217826
331.875	0.0001261038
332.5	0.0001373847
333.125	0.0001423085
333.75	0.0001435905
334.375	0.0001513076
335	0.0001530758
335.625	0.0001560367
336.25	0.0001540067
336.875	0.0001580045
337.5	0.0001638744
338.125	0.0001648546
338.75	0.0001695798
339.375	0.0001752898
340	0.0001819894
340.625	0.000185179
341.25	0.0001884751
341.875	0.0001923178
342.5	0.0001965093
343.125	0.0001945425
343.75	0.0001945281
344.375	0.0001951298
345	0.0001924231
345.625	0.0001926903
346.25	0.0001843109
346.875	0.0001816956
347.5	0.0001856867
348.125	0.0001814177
348.75	0.0001821564
349.375	0.0001799881
350	0.0001865746
350.625	0.0001864208
351.25	0.0001843576
351.875	0.0001856939
352.5	0.0001864432
353.125	0.0001888046
353.75	0.0001854653
354.375	0.0001816461
355	0.000183535
355.625	0.0001820281
356.25	0.0001807649
356.875	0.0001756395
357.5	0.0001763756
358.125	0.0001790502
358.75	0.0001812023
359.375	0.00017976
360	0.0001867339
360.625	0.0001899961
361.25	0.0001951083
361.875	0.0001958481
362.5	0.000199227
363.125	0.0002033881
363.75	0.0002011107
364.375	0.0002013389
365	0.0001995251
365.625	0.0001977844
366.25	0.0002008755
366.875	0.0001939503
367.5	0.0001984881
368.125	0.0001977837
368.75	0.0002023057
369.375	0.0002038013
370	0.0002076658
370.625	0.0002150274
371.25	0.0002185284
371.875	0.0002176651
372.5	0.0002189902
373.125	0.0002183401
373.75	0.0002190765
374.375	0.0002149886
375	0.0002119603
375.625	0.0002112924
376.25	0.0002119934
376.875	0.0002059629
377.5	0.0002071961
378.125	0.0002049937
378.75	0.0002126445
379.375	0.0002129263
380	0.0002168931
380.625	0.0002201344
381.25	0.0002242329
381.875	0.0002288807
382.5	0.0002268132
383.125	0.0002289131
383.75	0.0002319088
384.375	0.00022905
385	0.0002321362
385.625	0.0002273476
386.25	0.0002332796
386.875	0.0002347789
387.5	0.000237545
388.125	0.0002413112
388.75	0.0002473461
389.375	0.0002526422
390	0.0002593855
390.625	0.0002627218
391.25	0.0002703808
391.875	0.0002774329
392.5	0.0002809295
393.125	0.0002818303
393.75	0.0002843161
394.375	0.0002856182
395	0.0002869394
395.625	0.0002848773
396.25	0.0002929922
396.875	0.0002905983
397.5	0.0002968975
398.125	0.0002989418
398.75	0.0003031483
399.375	0.0003100842
400	0.0003110895
400.625	0.0003142091
401.25	0.0003175879
401.875	0.0003178958
402.5	0.0003214985
403.125	0.0003165641
403.75	0.0003181148
404.375	0.0003145419
405	0.0003087991
405.625	0.000300957
406.25	0.0002984039
406.875	0.0002936612
407.5	0.0002917871
408.125	0.0002860705
408.75	0.0002847553
409.375	0.0002837021
410	0.0002794362
410.625	0.000276292
411.25	0.0002734186
411.875	0.0002708807
412.5	0.0002670152
413.125	0.0002565614
413.75	0.0002532853
414.375	0.0002430067
415	0.0002349454
415.625	0.000220774
416.25	0.000207791
416.875	0.0002022964
417.5	0.000189655
418.125	0.0001792425
418.75	0.0001712686
419.375	0.0001630183
420	0.0001579501
420.625	0.0001470586
421.25	0.0001396349
421.875	0.0001350308
422.5	0.0001270432
423.125	0.000116624
423.75	0.0001083826
424.375	9.954607e-5
425	9.099122e-5
425.625	7.841539e-5
426.25	6.76074e-5
426.875	6.008414e-5
427.5	5.208457e-5
428.125	5.110454e-5
428.75	4.531595e-5
429.375	4.973285e-5
430	5.685096e-5
430.625	6.109705e-5
431.25	6.764363e-5
431.875	6.930858e-5
432.5	7.805949e-5
433.125	7.905676e-5
433.75	8.687698e-5
434.375	8.87272e-5
435	9.696002e-5
435.625	0.000103976
436.25	0.0001088828
436.875	0.0001150556
437.5	0.0001239809
438.125	0.000131753
438.75	0.0001425793
439.375	0.0001489203
440	0.0001586577
440.625	0.0001677826
441.25	0.000172101
441.875	0.0001753256
442.5	0.0001841781
443.125	0.0001837456
443.75	0.0001878898
444.375	0.0001870941
445	0.0001914789
445.625	0.0001947737
446.25	0.0001934045
446.875	0.0001979982
447.5	0.0001996608
448.125	0.0002042596
448.75	0.0002083364
449.375	0.0002089159
450	0.000216741
450.625	0.0002207648
451.25	0.0002253722
451.875	0.0002260061
452.5	0.0002267925
453.125	0.0002299648
453.75	0.0002275568
454.375	0.0002246344
455	0.0002241507
455.625	0.0002237462
456.25	0.0002175988
456.875	0.0002147183
457.5	0.0002106521
458.125	0.0002103265
458.75	0.0002056328
459.375	0.0002035793
460	0.000206002
460.625	0.0002033898
461.25	0.0002020522
461.875	0.0001992013
462.5	0.000194609
463.125	0.0001971515
463.75	0.0001880589
464.375	0.000186307
465	0.0001825235
465.625	0.000179494
466.25	0.0001724189
466.875	0.0001619092
467.5	0.0001552367
468.125	0.0001501728
468.75	0.0001408163
469.375	0.0001350953
470	0.000130302
470.625	0.0001312764
471.25	0.0001244904
471.875	0.0001195544
472.5	0.0001164168
473.125	0.0001166076
473.75	0.0001099772
474.375	0.0001080411
475	9.926662e-5
475.625	9.805011e-5
476.25	9.253043e-5
476.875	8.301505e-5
477.5	7.865171e-5
478.125	7.428321e-5
478.75	7.631219e-5
479.375	7.557158e-5
480	7.642996e-5
480.625	8.500007e-5
481.25	8.832479e-5
481.875	9.696223e-5
482.5	9.482293e-5
483.125	0.0001013142
483.75	0.0001032549
484.375	0.0001035844
485	0.0001018923
485.625	0.0001033406
486.25	0.0001063065
486.875	0.0001104338
487.5	0.000110451
488.125	0.0001136812
488.75	0.0001191655
489.375	0.0001237914
490	0.0001256912
490.625	0.0001306184
491.25	0.000136544
491.875	0.0001443259
492.5	0.0001417402
493.125	0.0001485789
493.75	0.0001480326
494.375	0.0001509934
495	0.0001482031
495.625	0.0001447051
496.25	0.0001469005
496.875	0.0001452702
497.5	0.0001418574
498.125	0.0001400174
498.75	0.0001373412
499.375	0.0001415896
500	0.0001351771
500.625	0.0001372659
501.25	0.0001382208
501.875	0.0001427132
502.5	0.0001418802
503.125	0.0001391899
503.75	0.0001380171
504.375	0.0001392664
505	0.0001320085
505.625	0.0001254593
506.25	0.0001232174
506.875	0.0001183679
507.5	0.0001147474
508.125	0.0001106896
508.75	0.0001059995
509.375	0.0001101309
510	0.0001055429
510.625	0.0001069345
511.25	0.0001037146
511.875	0.000109928
512.5	0.0001090198
513.125	0.0001059227
513.75	0.0001071964
514.375	0.0001033526
515	0.0001028916
515.625	9.818487e-5
516.25	9.226312e-5
516.875	9.52718e-5
517.5	9.388208e-5
518.125	9.410142e-5
518.75	9.276791e-5
519.375	9.746644e-5
520	9.97376e-5
520.625	0.0001030666
521.25	0.0001032529
521.875	0.0001089834
522.5	0.0001123844
523.125	0.0001142508
523.75	0.0001131467
524.375	0.0001127878
525	0.0001156712
525.625	0.0001109178
526.25	0.0001093834
526.875	0.0001092326
527.5	0.0001062629
528.125	0.0001086226
528.75	0.0001023585
529.375	0.0001065827
530	0.000109358
530.625	0.0001081722
531.25	0.000110761
531.875	0.0001111331
532.5	0.0001167671
533.125	0.0001167781
533.75	0.0001150833
534.375	0.0001167351
535	0.0001174744
535.625	0.0001140756
536.25	0.0001085855
536.875	0.0001051243
537.5	0.0001039924
538.125	0.0001008171
538.75	9.552273e-5
539.375	9.358201e-5
540	9.442872e-5
540.625	8.930419e-5
541.25	8.928236e-5
541.875	8.448423e-5
542.5	8.991538e-5
543.125	8.822405e-5
543.75	8.684971e-5
544.375	8.711866e-5
545	8.569525e-5
545.625	8.408552e-5
546.25	7.875008e-5
546.875	7.359442e-5
547.5	7.416491e-5
548.125	6.563465e-5
548.75	6.454191e-5
549.375	5.725511e-5
550	5.546411e-5
550.625	5.070374e-5
551.25	4.472056e-5
551.875	4.255694e-5
552.5	4.278032e-5
553.125	3.789242e-5
553.75	3.66338e-5
554.375	3.530199e-5
555	3.237285e-5
555.625	3.02387e-5
556.25	2.611538e-5
556.875	2.128491e-5
557.5	2.25682e-5
558.125	1.30502e-5
558.75	9.318693e-6
559.375	6.279248e-6
560	5.470266e-6
560.625	1.104596e-5
561.25	2.114297e-5
561.875	2.452677e-5
562.5	3.152801e-5
563.125	3.755449e-5
563.75	4.298844e-5
564.375	4.636481e-5
565	4.899974e-5
565.625	5.443637e-5
566.25	5.738356e-5
566.875	5.627842e-5
567.5	6.003014e-5
568.125	6.0761e-5
568.75	6.546428e-5
569.375	6.728854e-5
570	7.426268e-5
570.625	8.216229e-5
571.25	9.28843e-5
571.875	9.472566e-5
572.5	0.000103046
573.125	0.0001089595
573.75	0.0001132001
574.375	0.0001163117
575	0.0001171774
575.625	0.0001220162
576.25	0.0001247446
576.875	0.0001188182
577.5	0.0001225589
578.125	0.000119246
578.75	0.0001241774
579.375	0.0001214437
580	0.0001214667
580.625	0.00012646
581.25	0.0001280247
581.875	0.0001274349
582.5	0.0001276574
583.125	0.0001287142
583.75	0.0001319238
584.375	0.0001302454
585	0.0001291475
585.625	0.0001279956
586.25	0.0001294646
586.875	0.0001218567
587.5	0.0001175284
588.125	0.0001127907
588.75	0.0001110333
589.375	0.0001026994
590	9.747457e-5
590.625	9.573457e-5
591.25	9.049645e-5
591.875	8.92637e-5
592.5	8.122258e-5
593.125	8.018871e-5
593.75	7.970519e-5
594.375	7.301428e-5
595	7.363695e-5
595.625	6.821124e-5
596.25	6.551682e-5
596.875	6.039866e-5
597.5	4.895098e-5
598.125	4.243642e-5
598.75	3.403857e-5
599.375	2.544405e-5
600	1.548348e-5
600.625	1.266512e-5
601.25	1.199984e-5
601.875	1.413572e-5
602.5	2.000735e-5
603.125	2.248968e-5
603.75	2.369079e-5
604.375	2.781004e-5
605	2.893111e-5
605.625	2.51098e-5
606.25	2.773566e-5
606.875	2.886103e-5
607.5	3.601599e-5
608.125	3.35568e-5
608.75	4.281615e-5
609.375	4.53135e-5
610	5.332121e-5
610.625	5.770914e-5
611.25	5.795259e-5
611.875	6.413453e-5
612.5	6.794131e-5
613.125	6.743382e-5
613.75	6.859437e-5
614.375	6.667116e-5
615	7.039571e-5
615.625	6.431914e-5
616.25	6.205683e-5
616.875	5.860594e-5
617.5	6.01895e-5
618.125	5.577579e-5
618.75	5.624736e-5
619.375	5.499077e-5
620	5.887487e-5
620.625	5.710209e-5
621.25	5.577333e-5
621.875	5.644226e-5
622.5	5.610062e-5
623.125	5.669065e-5
623.75	5.199328e-5
624.375	4.819666e-5
625	5.05051e-5
625.625	4.333028e-5
626.25	4.339783e-5
626.875	3.602435e-5
627.5	4.365021e-5
628.125	4.657002e-5
628.75	5.310161e-5
629.375	5.493234e-5
630	6.097451e-5
630.625	7.005196e-5
631.25	7.346959e-5
631.875	7.446397e-5
632.5	7.517276e-5
633.125	7.714841e-5
633.75	8.14981e-5
634.375	7.845747e-5
635	7.922588e-5
635.625	8.644373e-5
636.25	9.387179e-5
636.875	9.449873e-5
637.5	0.0001022519
638.125	0.0001059999
638.75	0.0001176563
639.375	0.0001189756
640	0.0001212576
640.625	0.0001271422
641.25	0.0001304691
641.875	0.0001321735
642.5	0.0001280929
643.125	0.0001271984
643.75	0.0001284627
644.375	0.0001237755
645	0.0001239113
645.625	0.0001186354
646.25	0.0001267302
646.875	0.0001258179
647.5	0.0001246457
648.125	0.0001263692
648.75	0.0001307492
649.375	0.0001312348
650	0.0001311704
650.625	0.0001300766
651.25	0.0001306342
651.875	0.0001303659
652.5	0.0001256273
653.125	0.0001202775
653.75	0.0001188242
654.375	0.0001160188
655	0.0001151283
655.625	0.0001100779
656.25	0.0001167514
656.875	0.0001164774
657.5	0.0001239596
658.125	0.0001231269
658.75	0.0001298201
659.375	0.0001371463
660	0.0001369653
660.625	0.0001412565
661.25	0.0001433202
661.875	0.0001472802
662.5	0.0001527122
663.125	0.0001526387
663.75	0.0001582468
664.375	0.0001622839
665	0.000170733
665.625	0.0001725715
666.25	0.0001813938
666.875	0.0001901465
667.5	0.0002013822
668.125	0.0002061968
668.75	0.0002140201
669.375	0.0002210957
670	0.0002282875
670.625	0.0002294652
671.25	0.0002300886
671.875	0.0002362354
672.5	0.0002391067
673.125	0.0002390645
673.75	0.0002427019
674.375	0.000241592
675	0.0002522174
675.625	0.0002497753
676.25	0.0002541548
676.875	0.0002588828
677.5	0.0002656667
678.125	0.0002691436
678.75	0.0002683366
679.375	0.0002698604
680	0.0002724407
680.625	0.0002681004
681.25	0.00026341
681.875	0.0002581512
682.5	0.0002602634
683.125	0.0002523265
683.75	0.0002464296
684.375	0.0002407609
685	0.0002398997
685.625	0.000233345
686.25	0.0002309801
686.875	0.0002241795
687.5	0.0002257798
688.125	0.0002259674
688.75	0.0002175114
689.375	0.0002151179
690	0.0002114777
690.625	0.0002055193
691.25	0.0001988975
691.875	0.0001851746
692.5	0.0001839788
693.125	0.0001755026
693.75	0.0001693828
694.375	0.0001575917
695	0.0001557718
695.625	0.0001530456
696.25	0.0001482645
696.875	0.0001457893
697.5	0.0001453626
698.125	0.0001476204
698.75	0.0001518871
699.375	0.0001488481
700	0.0001484195
700.625	0.0001500798
701.25	0.0001496989
701.875	0.0001448754
702.5	0.0001454251
703.125	0.0001453745
703.75	0.0001528268
704.375	0.0001521589
705	0.0001594057
705.625	0.0001637458
706.25	0.0001744646
706.875	0.0001798184
707.5	0.0001826601
708.125	0.0001894794
708.75	0.0001922605
709.375	0.000195659
710	0.0001971114
710.625	0.0001944842
711.25	0.0002007473
711.875	0.0001962194
712.5	0.0001973028
713.125	0.0001970974
713.75	0.0002010152
714.375	0.0002023453
715	0.000206511
715.625	0.0002077623
716.25	0.0002143761
716.875	0.0002154647
717.5	0.0002141811
718.125	0.0002142879
718.75	0.0002130133
719.375	0.0002095746
720	0.000206918
720.625	0.0002020734
721.25	0.0002015851
721.875	0.0001929863
722.5	0.0001883966
723.125	0.000178314
723.75	0.0001781275
724.375	0.000172295
725	0.0001665306
725.625	0.0001671229
726.25	0.0001650378
726.875	0.000164103
727.5	0.0001593954
728.125	0.0001521252
728.75	0.0001529005
729.375	0.0001451913
730	0.0001375175
730.625	0.0001307065
731.25	0.000127899
731.875	0.0001195487
732.5	0.0001110885
733.125	9.885672e-5
733.75	9.400792e-5
734.375	8.873786e-5
735	8.143362e-5
735.625	7.629665e-5
736.25	7.548476e-5
736.875	7.745482e-5
737.5	7.181973e-5
738.125	6.68257e-5
738.75	6.495423e-5
739.375	5.963671e-5
740	5.735466e-5
740.625	4.413283e-5
741.25	4.181155e-5
741.875	3.929818e-5
742.5	3.326564e-5
743.125	2.72156e-5
743.75	2.328181e-5
744.375	2.440178e-5
745	2.377117e-5
745.625	2.201867e-5
746.25	1.995793e-5
746.875	2.082777e-5
747.5	2.535936e-5
748.125	2.039322e-5
748.75	1.624228e-5
749.375	1.288944e-5
750	1.019098e-5
750.625	3.919092e-6
751.25	4.667727e-6
751.875	6.636054e-6
752.5	7.655464e-6
753.125	1.031959e-5
753.75	1.688198e-5
754.375	1.422288e-5
755	1.880586e-5
755.625	1.961297e-5
756.25	2.045612e-5
756.875	1.999006e-5
757.5	1.38497e-5
758.125	1.697146e-5
758.75	1.695209e-5
759.375	2.171973e-5
760	2.253777e-5
760.625	2.934606e-5
761.25	3.626523e-5
761.875	4.200022e-5
762.5	4.500168e-5
763.125	4.62245e-5
763.75	5.070437e-5
764.375	5.229358e-5
765	4.9954e-5
765.625	5.039821e-5
766.25	5.230466e-5
766.875	4.921711e-5
767.5	4.676331e-5
768.125	4.585801e-5
768.75	4.496972e-5
769.375	5.208842e-5
770	4.999673e-5
770.625	5.513238e-5
771.25	6.15887e-5
771.875	6.501873e-5
772.5	6.698557e-5
773.125	6.345528e-5
773.75	6.633595e-5
774.375	6.427012e-5
775	6.08219e-5
775.625	5.597015e-5
776.25	5.444113e-5
776.875	5.999232e-5
777.5	5.72294e-5
778.125	5.733203e-5
778.75	5.910083e-5
779.375	6.459523e-5
780	6.677134e-5
780.625	6.89716e-5
781.25	6.906971e-5
781.875	7.696888e-5
782.5	8.219919e-5
783.125	8.101754e-5
783.75	8.13036e-5
784.375	8.53514e-5
785	8.980511e-5
785.625	8.84621e-5
786.25	8.953041e-5
786.875	9.555145e-5
787.5	0.0001036878
788.125	0.0001140634
788.75	0.0001131443
789.375	0.0001259421
790	0.0001341702
790.625	0.0001405379
791.25	0.0001437739
791.875	0.000146518
792.5	0.0001557759
793.125	0.0001607866
793.75	0.0001602129
794.375	0.0001619313
795	0.0001661583
795.625	0.0001703479
796.25	0.0001677826
796.875	0.0001704008
797.5	0.0001774203
798.125	0.0001883707
798.75	0.0001907295
799.375	0.0001958911
800	0.0002024028
800.625	0.0002097561
801.25	0.0002095182
801.875	0.0002077401
802.5	0.0002120445
803.125	0.0002120422
803.75	0.0002121151
804.375	0.0002056862
805	0.0002034739
805.625	0.0002062569
806.25	0.0001984438
806.875	0.0001959002
807.5	0.0001940917
808.125	0.0001966466
808.75	0.0001972469
809.375	0.0001919411
810	0.0001922939
810.625	0.0001921349
811.25	0.0001894211
811.875	0.0001816101
812.5	0.0001784157
813.125	0.0001752618
813.75	0.0001699931
814.375	0.0001617017
815	0.0001541106
815.625	0.0001482011
816.25	0.0001419818
816.875	0.0001331826
817.5	0.0001235021
818.125	0.00012332
818.75	0.0001202101
819.375	0.0001134641
820	0.000112941
820.625	0.0001081133
821.25	0.0001102266
821.875	0.0001032572
822.5	9.750661e-5
823.125	9.520743e-5
823.75	9.392261e-5
824.375	9.085867e-5
825	8.524555e-5
825.625	8.881804e-5
826.25	9.207779e-5
826.875	9.826247e-5
827.5	0.0001009372
828.125	0.0001061255
828.75	0.0001162229
829.375	0.0001260778
830	0.0001283939
830.625	0.000132446
831.25	0.0001408638
831.875	0.0001439566
832.5	0.0001452095
833.125	0.0001432005
833.75	0.0001475874
834.375	0.0001538348
835	0.0001560659
835.625	0.0001599184
836.25	0.0001651796
836.875	0.0001781228
837.5	0.0001809198
838.125	0.0001844857
838.75	0.0001897852
839.375	0.0001945947
840	0.0002003096
840.625	0.0001947706
841.25	0.0001969957
841.875	0.0002008005
842.5	0.0001972982
843.125	0.0001925975
843.75	0.0001893125
844.375	0.0001895311
845	0.0001877591
845.625	0.0001830262
846.25	0.0001810139
846.875	0.0001839556
847.5	0.0001827202
848.125	0.0001783903
848.75	0.0001760576
849.375	0.0001732073
850	0.0001755626
850.625	0.0001674633
851.25	0.0001630478
851.875	0.0001606855
852.5	0.0001580175
853.125	0.0001462987
853.75	0.0001341468
854.375	0.0001297056
855	0.0001213065
855.625	0.0001125908
856.25	0.0001067879
856.875	0.0001003791
857.5	0.0001023888
858.125	9.441441e-5
858.75	8.896265e-5
859.375	8.387015e-5
860	8.211264e-5
860.625	7.531396e-5
861.25	6.796305e-5
861.875	5.955762e-5
862.5	5.645122e-5
863.125	5.080613e-5
863.75	4.160323e-5
864.375	3.716414e-5
865	3.901398e-5
865.625	4.547956e-5
866.25	4.613639e-5
866.875	5.24479e-5
867.5	5.515813e-5
868.125	6.051001e-5
868.75	6.711109e-5
869.375	6.566016e-5
870	6.774572e-5
870.625	7.048597e-5
871.25	7.251601e-5
871.875	7.101258e-5
872.5	7.405955e-5
873.125	8.185842e-5
873.75	8.481904e-5
874.375	9.329071e-5
875	9.520962e-5
875.625	0.000102927
876.25	0.0001085636
876.875	0.0001103428
877.5	0.0001115956
878.125	0.0001165405
878.75	0.0001185661
879.375	0.0001190787
880	0.0001182746
880.625	0.000116927
881.25	0.0001189168
881.875	0.0001135051
882.5	0.0001091413
883.125	0.0001119227
883.75	0.0001126689
884.375	0.0001152667
885	0.0001117425
885.625	0.0001174376
886.25	0.0001202644
886.875	0.0001203795
887.5	0.0001183955
888.125	0.0001161867
888.75	0.0001204797
889.375	0.0001161342
890	0.0001112214
890.625	0.0001080623
891.25	0.0001047758
891.875	0.0001019665
892.5	9.418647e-5
893.125	8.903036e-5
893.75	9.166825e-5
894.375	9.382998e-5
895	8.918596e-5
895.625	8.92652e-5
896.25	9.120507e-5
896.875	9.151402e-5
897.5	8.818202e-5
898.125	8.073816e-5
898.75	8.136003e-5
899.375	7.909889e-5
900	7.492927e-5
900.625	6.655631e-5
901.25	6.491556e-5
901.875	6.468609e-5
902.5	5.965768e-5
903.125	5.89044e-5
903.75	5.37829e-5
904.375	5.964191e-5
905	6.293049e-5
905.625	5.918854e-5
906.25	6.041945e-5
906.875	6.319727e-5
907.5	6.274576e-5
908.125	5.783811e-5
908.75	5.400306e-5
909.375	5.058456e-5
910	5.114311e-5
910.625	5.121469e-5
911.25	4.7749e-5
911.875	5.149743e-5
912.5	5.865147e-5
913.125	6.403699e-5
913.75	6.418497e-5
914.375	7.10075e-5
915	7.220396e-5
915.625	7.943378e-5
916.25	7.777434e-5
916.875	7.88234e-5
917.5	8.38111e-5
918.125	8.369268e-5
918.75	8.32899e-5
919.375	8.110069e-5
920	8.359519e-5
920.625	8.636543e-5
921.25	8.75893e-5
921.875	9.259221e-5
922.5	9.556323e-5
923.125	0.0001075597
923.75	0.0001090529
924.375	0.0001116375
925	0.000116441
925.625	0.0001208677
926.25	0.0001199234
926.875	0.0001213198
927.5	0.0001218745
928.125	0.0001248715
928.75	0.0001236041
929.375	0.0001187768
930	0.000121312
930.625	0.0001222848
931.25	0.0001201006
931.875	0.0001233106
932.5	0.0001230541
933.125	0.0001304652
933.75	0.0001315271
934.375	0.0001313071
935	0.000131676
935.625	0.0001334218
936.25	0.000132019
936.875	0.0001251582
937.5	0.0001273943
938.125	0.0001267129
938.75	0.0001233242
939.375	0.0001169219
940	0.0001114048
940.625	0.0001125401
941.25	0.0001071309
941.875	9.988551e-5
942.5	0.0001016197
943.125	0.0001039868
943.75	0.0001028855
944.375	9.956356e-5
945	9.732981e-5
945.625	9.542349e-5
946.25	9.525475e-5
946.875	8.204572e-5
947.5	7.997153e-5
948.125	7.869885e-5
948.75	7.352138e-5
949.375	6.479958e-5
950	5.497285e-5
950.625	5.165031e-5
951.25	4.705551e-5
951.875	3.588443e-5
952.5	2.999894e-5
953.125	2.986629e-5
953.75	3.445687e-5
954.375	2.594331e-5
955	2.511345e-5
955.625	2.242663e-5
956.25	2.137687e-5
956.875	1.506225e-5
957.5	6.745133e-6
958.125	4.175042e-6
958.75	4.164365e-6
959.375	7.378123e-6
960	1.441857e-5
960.625	1.978255e-5
961.25	2.514554e-5
961.875	3.497742e-5
962.5	4.105644e-5
963.125	4.61675e-5
963.75	4.128438e-5
964.375	5.083169e-5
965	5.480751e-5
965.625	5.345638e-5
966.25	5.582625e-5
966.875	5.674902e-5
967.5	5.991324e-5
968.125	5.795449e-5
968.75	5.493339e-5
969.375	6.19441e-5
970	6.630236e-5
970.625	7.025421e-5
971.25	7.116246e-5
971.875	7.994426e-5
972.5	8.320762e-5
973.125	8.285273e-5
973.75	8.319328e-5
974.375	8.605353e-5
975	9.091172e-5
975.625	8.873776e-5
976.25	8.899254e-5
976.875	9.061982e-5
977.5	9.048598e-5
978.125	8.470249e-5
978.75	8.268047e-5
979.375	8.401681e-5
980	8.562983e-5
980.625	8.65742e-5
981.25	8.628703e-5
981.875	9.062182e-5
982.5	9.672506e-5
983.125	8.980963e-5
983.75	9.434974e-5
984.375	9.434697e-5
985	9.933612e-5
985.625	9.87153e-5
986.25	9.74592e-5
986.875	0.0001022322
987.5	0.0001020396
988.125	9.382269e-5
988.75	9.307965e-5
989.375	9.263487e-5
990	9.20176e-5
990.625	8.67025e-5
991.25	8.696637e-5
991.875	8.719281e-5
992.5	9.004271e-5
993.125	8.339074e-5
993.75	8.518359e-5
994.375	9.074507e-5
995	9.413845e-5
995.625	9.32679e-5
996.25	9.495438e-5
996.875	9.993303e-5
997.5	9.859969e-5
998.125	9.377226e-5
998.75	9.02755e-5
999.375	9.089529e-5
1000	9.282811e-5
