Source File Name:	1,2,2
Signal:	FFT - Vib Velocity - Mag. & Phase

Frequency	Magnitude	Phase
[ Hz ]	[ m/s ]	[ ° ]
20	0.07097726	-6.843275
20.5	0.06747481	-33.14718
21	0.05467431	-50.23454
21.5	0.03980534	-54.96668
22	0.03095847	-52.97149
22.5	0.0262789	-49.28823
23	0.02442707	-25.24899
23.5	0.0213542	-18.15068
24	0.01910218	-20.65054
24.5	0.01701821	-11.396
25	0.01571849	-21.7301
25.5	0.01491142	-24.06316
26	0.01448896	-34.43924
26.5	0.0138662	-37.37218
27	0.01320568	-47.91723
27.5	0.01293555	-48.27769
28	0.0122066	-44.47565
28.5	0.0115126	-52.12036
29	0.01136543	-53.07664
29.5	0.01083651	-65.11284
30	0.01071233	-68.3988
30.5	0.01062859	-76.17421
31	0.01027471	-81.63508
31.5	0.01027618	-90.63143
32	0.01021665	-87.43512
32.5	0.009859384	-88.71494
33	0.009792623	-89.08596
33.5	0.008652744	-87.8485
34	0.00914479	-77.98777
34.5	0.009410564	-79.75024
35	0.009292876	-78.51015
35.5	0.009163971	-75.96316
36	0.009225539	-74.88792
36.5	0.009160985	-71.28821
37	0.00911892	-67.88866
37.5	0.009545907	-61.6044
38	0.009895629	-59.64154
38.5	0.009973485	-63.25548
39	0.01050103	-62.29208
39.5	0.01062961	-67.37437
40	0.01060032	-74.61158
40.5	0.01078685	-83.78528
41	0.01066256	-80.94082
41.5	0.01025333	-85.54314
42	0.01021431	-91.36099
42.5	0.009972838	-89.6713
43	0.009916125	-88.24638
43.5	0.01001491	-89.96986
44	0.009815094	-93.18592
44.5	0.00978671	-96.52599
45	0.009777656	-97.34334
45.5	0.0096539	-97.44244
46	0.009797248	-100.9641
46.5	0.009939249	-100.6788
47	0.009992837	-106.6523
47.5	0.009991566	-90.10054
48	0.01019458	-91.96235
48.5	0.01044127	-97.63487
49	0.01033912	-100.9976
49.5	0.01022508	-105.0992
50	0.01005413	-109.7861
50.5	0.01009391	-100.4915
51	0.0101651	-95.68649
51.5	0.01022077	-94.88379
52	0.01007889	-99.19215
52.5	0.01015263	-96.75529
53	0.01005275	-91.14232
53.5	0.009888642	-98.44215
54	0.01024242	-103.2738
54.5	0.01021415	-110.5181
55	0.01038097	-113.2543
55.5	0.01011903	-108.3266
56	0.01020204	-111.6512
56.5	0.01014667	-119.0261
57	0.0101904	-125.211
57.5	0.01018917	-121.2384
58	0.01003081	-118.5228
58.5	0.01015791	-123.1387
59	0.0102276	-118.1949
59.5	0.01017291	-115.3933
60	0.01046915	-123.8085
60.5	0.01047043	-120.396
61	0.01042335	-125.712
61.5	0.01074812	-124.2936
62	0.01081737	-125.1359
62.5	0.01093604	-127.8296
63	0.01106929	-127.1916
63.5	0.01098626	-112.7646
64	0.01109248	-131.9311
64.5	0.01129416	-130.2419
65	0.01117818	-125.5754
65.5	0.01116841	-139.3032
66	0.01131954	-140.0032
66.5	0.01141288	-126.9989
67	0.0112882	-130.3906
67.5	0.01167022	-128.8509
68	0.01172279	-133.7916
68.5	0.01186868	-130.6649
69	0.01207446	-146.3921
69.5	0.01215773	-147.5195
70	0.01235743	-148.4121
70.5	0.01260651	-152.4664
71	0.01249228	-157.5474
71.5	0.01275404	-142.4757
72	0.01307051	-145.0488
72.5	0.01294562	-152.9179
73	0.01319339	-152.8105
73.5	0.01339386	-158.9858
74	0.01369344	-162.1075
74.5	0.01388189	-159.8479
75	0.01407698	-168.6921
75.5	0.0142171	-171.9822
76	0.01429182	-168.9822
76.5	0.01413524	-176.9945
77	0.01391173	-171.5821
77.5	0.01368149	-178.9456
78	0.01324127	-178.4817
78.5	0.01253545	177.6912
79	0.01187488	177.1384
79.5	0.01127588	164.0857
80	0.01024688	160.4932
80.5	0.009264686	149.99
81	0.008373884	162.8976
81.5	0.007476859	156.5135
82	0.006880492	165.0918
82.5	0.006565045	-178.0264
83	0.006694266	-170.7425
83.5	0.007269662	-170.651
84	0.007927327	-164.9892
84.5	0.008929499	-160.7723
85	0.009667267	-168.3459
85.5	0.01088458	-167.917
86	0.01172297	-168.594
86.5	0.01244005	178.5714
87	0.01347518	-176.393
87.5	0.01429104	-165.7304
88	0.01496669	174.796
88.5	0.01575124	166.5561
89	0.01630156	156.5586
89.5	0.01657505	154.8103
90	0.0168779	144.5756
90.5	0.01661188	138.0294
91	0.01655485	144.594
91.5	0.01604907	126.7611
92	0.01530242	120.5855
92.5	0.01465846	121.8408
93	0.01402261	127.5004
93.5	0.0131175	108.0176
94	0.01236972	102.0994
94.5	0.01160996	100.9566
95	0.01070364	103.4878
95.5	0.01002972	109.3447
96	0.009328616	98.37845
96.5	0.008627539	116.1619
97	0.00803358	110.9753
97.5	0.007532857	106.1501
98	0.006939148	96.73502
98.5	0.006835759	111.3874
99	0.00671764	103.5717
99.5	0.006341819	108.1245
100	0.006353037	109.9376
100.5	0.0062644	113.9382
101	0.00607796	116.4422
101.5	0.006284713	124.1579
102	0.006187714	118.6278
102.5	0.006224717	121.6683
103	0.00618826	122.3312
103.5	0.006339313	126.2645
104	0.006434616	127.6104
104.5	0.006694674	129.4412
105	0.006930755	133.1778
105.5	0.006900186	137.8758
106	0.007103052	119.0841
106.5	0.007241973	126.0565
107	0.007319924	115.9104
107.5	0.00740313	117.51
108	0.007442487	107.3892
108.5	0.00713694	113.8976
109	0.007204719	97.24959
109.5	0.007135045	102.0419
110	0.007024506	84.0914
110.5	0.006904102	102.3281
111	0.006654313	105.7911
111.5	0.006597952	90.89759
112	0.006529734	104.5479
112.5	0.006530017	108.6025
113	0.00646855	111.5135
113.5	0.00629739	87.40257
114	0.006290367	80.93814
114.5	0.006064778	84.84182
115	0.006077812	78.12326
115.5	0.006150959	77.37305
116	0.00577967	91.70731
116.5	0.005569434	78.21526
117	0.005567372	78.03033
117.5	0.005472889	89.91962
118	0.005371972	81.7383
118.5	0.005484016	85.40137
119	0.005324609	95.10049
119.5	0.005559736	91.27422
120	0.005593014	90.7611
120.5	0.005780587	114.3461
121	0.005948889	95.06567
121.5	0.006224558	92.11417
122	0.006122154	98.65578
122.5	0.006166268	85.9561
123	0.006615846	87.32671
123.5	0.006496553	99.19563
124	0.006581503	78.82906
124.5	0.006732743	90.06679
125	0.006677288	70.12307
125.5	0.006799717	71.83703
126	0.006879989	75.37566
126.5	0.006762137	76.00569
127	0.007044815	85.8699
127.5	0.006959057	112.4437
128	0.006721866	64.68581
128.5	0.007061119	85.22498
129	0.007085	71.32594
129.5	0.006818939	57.3077
130	0.006846426	64.0996
130.5	0.006776892	49.57642
131	0.006656615	81.21909
131.5	0.006473153	71.77392
132	0.006345418	48.80167
132.5	0.006119623	58.20585
133	0.006036583	53.9868
133.5	0.005745452	54.73508
134	0.005593822	51.37611
134.5	0.005782584	28.26082
135	0.005516153	54.50782
135.5	0.005261496	52.38055
136	0.005307463	55.96535
136.5	0.005261302	55.67619
137	0.004918383	62.0722
137.5	0.004919997	52.3625
138	0.004586104	39.31945
138.5	0.004501669	34.65373
139	0.004228222	37.06849
139.5	0.003879585	47.58928
140	0.00394856	34.31598
140.5	0.003664481	99.55096
141	0.003359265	71.66695
141.5	0.003053027	48.65403
142	0.003147868	67.42358
142.5	0.002974272	36.58946
143	0.002707079	48.92257
143.5	0.002595778	56.8827
144	0.002615138	47.91666
144.5	0.00249888	60.60958
145	0.002482382	73.2243
145.5	0.002489954	51.03212
146	0.00254963	45.83257
146.5	0.002498197	67.98923
147	0.002382942	65.04312
147.5	0.002363415	71.74348
148	0.002581008	85.9161
148.5	0.002546298	86.19891
149	0.002530253	95.44958
149.5	0.002489946	87.32676
150	0.00282958	-152.9266
150.5	0.002712352	108.8354
151	0.002633292	61.37981
151.5	0.0028904	114.9874
152	0.002724424	141.7823
152.5	0.00284866	110.5052
153	0.002826079	74.16325
153.5	0.002930534	81.0504
154	0.003094463	61.80925
154.5	0.003263695	110.9482
155	0.003276477	93.70749
155.5	0.003587252	92.98068
156	0.003960057	120.9659
156.5	0.003968114	134.794
157	0.004104342	134.4594
157.5	0.004493196	132.2176
158	0.00458484	92.61434
158.5	0.004731561	124.4241
159	0.004990432	109.9117
159.5	0.005074293	120.8916
160	0.005276548	102.9711
160.5	0.00555858	90.38568
161	0.005478989	135.5035
161.5	0.005884735	89.75647
162	0.005924591	127.7947
162.5	0.005890222	68.13782
163	0.006355199	97.47749
163.5	0.006422237	71.73337
164	0.006499101	124.3898
164.5	0.006601189	118.9623
165	0.006783868	106.1698
165.5	0.006797467	110.6328
166	0.006989277	144.4611
166.5	0.00688293	137.8136
167	0.006944543	111.0301
167.5	0.006919812	63.29589
168	0.006867488	94.24239
168.5	0.006936537	107.2664
169	0.006909966	78.03217
169.5	0.006921963	66.5055
170	0.006716717	132.0038
170.5	0.007017941	42.10175
171	0.006942182	70.69641
171.5	0.006909586	59.73195
172	0.006876586	59.31288
172.5	0.006833727	90.72718
173	0.006793222	69.68727
173.5	0.006753608	51.73276
174	0.00670001	80.61221
174.5	0.006663535	39.15088
175	0.006552527	79.08883
175.5	0.006393171	72.64181
176	0.006480488	74.79199
176.5	0.006424398	83.33425
177	0.006340825	105.0767
177.5	0.006202275	93.28896
178	0.006223372	120.7598
178.5	0.006378546	95.25901
179	0.006151048	105.5495
179.5	0.006246148	111.7059
180	0.00631014	70.87914
180.5	0.006080377	94.93642
181	0.006174436	109.2952
181.5	0.006060516	60.74213
182	0.006034837	94.45116
182.5	0.005924629	70.67506
183	0.005745676	76.50341
183.5	0.005534003	62.25888
184	0.005727514	69.35366
184.5	0.005534358	61.21407
185	0.005419548	62.42231
185.5	0.00561869	78.93998
186	0.00559561	90.91183
186.5	0.005512941	49.25955
187	0.005513847	37.27869
187.5	0.00573221	69.70864
188	0.005524385	62.48886
188.5	0.005668953	95.14691
189	0.005447883	92.58612
189.5	0.005453219	81.31058
190	0.005660539	82.58553
190.5	0.005326026	101.4756
191	0.005307755	60.26984
191.5	0.00546199	58.82042
192	0.005204051	81.25865
192.5	0.005104603	72.53432
193	0.005330432	85.24229
193.5	0.00522312	81.566
194	0.005186566	77.32821
194.5	0.005138387	92.87526
195	0.005037376	70.73466
195.5	0.005286781	68.7215
196	0.005258754	68.74976
196.5	0.005055662	64.73062
197	0.005048247	37.00916
197.5	0.005122947	47.28881
198	0.004945996	57.52145
198.5	0.004817782	10.70467
199	0.005108913	48.70192
199.5	0.004771397	58.40127
200	0.004816751	43.57328
200.5	0.004802791	55.33758
201	0.004903522	45.38282
201.5	0.00501019	55.43329
202	0.004811083	75.91893
202.5	0.004639906	58.93491
203	0.004766516	58.46275
203.5	0.004784179	44.05738
204	0.004505823	82.9131
204.5	0.004511291	83.97794
205	0.004347623	84.13519
205.5	0.004305034	88.28145
206	0.004126962	60.73612
206.5	0.004247093	62.70763
207	0.004280278	67.15182
207.5	0.00408031	81.48888
208	0.004081098	48.87452
208.5	0.004074991	62.47672
209	0.004272914	61.2262
209.5	0.004274733	64.62965
210	0.00403197	56.97089
210.5	0.004131559	65.55667
211	0.004171467	52.86063
211.5	0.004137814	46.61035
212	0.003928368	67.97439
212.5	0.003973037	38.29561
213	0.003852545	61.62254
213.5	0.003652368	59.04045
214	0.003714971	58.27997
214.5	0.003788595	48.2053
215	0.003763105	59.91206
215.5	0.003711816	66.71917
216	0.003750539	51.75293
216.5	0.003696352	57.99465
217	0.004098145	79.50072
217.5	0.003822178	79.95508
218	0.003754837	76.19891
218.5	0.003972033	87.48656
219	0.003905233	75.50909
219.5	0.003895575	85.12668
220	0.003971504	69.467
220.5	0.004062089	80.81602
221	0.003982798	71.48304
221.5	0.004132552	88.83047
222	0.004227965	72.16428
222.5	0.004230257	78.56432
223	0.00444406	69.62053
223.5	0.004272901	88.95856
224	0.004319421	61.51209
224.5	0.004669573	59.22907
225	0.004614491	68.02586
225.5	0.004508231	55.81911
226	0.00471295	36.45335
226.5	0.004698894	43.60369
227	0.004702117	45.32917
227.5	0.004961976	62.88805
228	0.004805254	32.06297
228.5	0.005066306	72.53288
229	0.00508415	45.34118
229.5	0.005232921	66.94015
230	0.005419214	42.74257
230.5	0.005626116	53.57546
231	0.005601069	96.9287
231.5	0.005526037	42.90374
232	0.005849801	60.04243
232.5	0.00577671	42.70216
233	0.005791277	63.40728
233.5	0.00581239	82.75805
234	0.005758127	63.56535
234.5	0.005776215	59.75453
235	0.005930631	55.56727
235.5	0.005940975	37.69547
236	0.006054103	70.7266
236.5	0.006118214	29.94232
237	0.00606873	39.52021
237.5	0.006254709	51.12741
238	0.00637927	58.145
238.5	0.006421817	45.74357
239	0.006421375	58.99291
239.5	0.006434583	37.84766
240	0.006683715	31.84315
240.5	0.006476234	31.63654
241	0.006689594	10.52919
241.5	0.006685258	4.349984
242	0.006580461	9.759078
242.5	0.006674958	18.27002
243	0.006654889	5.97916
243.5	0.00674234	33.52432
244	0.00681607	12.69427
244.5	0.006886345	25.36935
245	0.006760175	2.78868
245.5	0.007041147	20.84357
246	0.006991808	2.48787
246.5	0.006994173	32.20872
247	0.007100143	36.37762
247.5	0.007131988	25.58532
248	0.006941261	27.55543
248.5	0.007006334	75.79042
249	0.007196491	23.03279
249.5	0.007023129	39.27818
250	0.007301664	-177.2638
250.5	0.00723609	26.40783
251	0.007173303	26.26731
251.5	0.007564532	0.5814338
252	0.007421378	39.26503
252.5	0.007469843	7.784518
253	0.007685469	-0.02619447
253.5	0.007502154	18.30586
254	0.007402473	-1.9488
254.5	0.007669742	12.71186
255	0.007655511	15.33466
255.5	0.007483465	-8.350537
256	0.007548094	-11.06159
256.5	0.007350252	-7.136847
257	0.007489286	-22.5694
257.5	0.007581498	-8.56183
258	0.007552805	-77.74801
258.5	0.007430241	25.42601
259	0.00766015	-22.13233
259.5	0.007546115	-58.70121
260	0.007598437	-31.95209
260.5	0.008055232	-16.78052
261	0.007734575	-9.518464
261.5	0.007739732	-3.432239
262	0.007721195	14.4294
262.5	0.007767673	-13.06091
263	0.007826607	2.406994
263.5	0.007705771	-20.89715
264	0.007464267	-0.6374566
264.5	0.00753452	-24.08892
265	0.007564554	-9.967513
265.5	0.007477245	-33.78027
266	0.007550553	-21.96247
266.5	0.007517879	-38.49562
267	0.007361407	-12.85891
267.5	0.007268712	-50.92544
268	0.007453503	-59.17838
268.5	0.007580377	-52.99812
269	0.007340421	4.015223
269.5	0.007325124	-31.13856
270	0.007250089	-43.34412
270.5	0.007433892	-32.99199
271	0.007397123	-46.69588
271.5	0.007245542	-35.97052
272	0.00725536	-95.47559
272.5	0.007110397	-57.42799
273	0.007183013	-20.19775
273.5	0.007018985	-55.28714
274	0.007222901	-62.0662
274.5	0.00715013	-48.17655
275	0.006893083	-62.13324
275.5	0.006924933	-42.4282
276	0.007205714	-40.97357
276.5	0.006991388	-78.84216
277	0.00688688	-22.42215
277.5	0.006873375	-34.54277
278	0.006659896	-61.5653
278.5	0.006908485	-41.28391
279	0.006721222	-55.05921
279.5	0.006665704	-60.94518
280	0.006837143	-51.60346
280.5	0.006729323	-54.78895
281	0.006591335	-42.71118
281.5	0.00676119	-72.16107
282	0.006920449	-81.71901
282.5	0.006585431	-84.1691
283	0.006635751	-49.83113
283.5	0.006739027	-56.89206
284	0.006593238	-65.40417
284.5	0.00676302	-68.48442
285	0.006552128	-46.47577
285.5	0.00649974	-64.15817
286	0.006685145	-98.47758
286.5	0.006527466	-79.97184
287	0.006262949	-92.42515
287.5	0.006616255	-77.32481
288	0.00638192	-78.54208
288.5	0.006178261	-49.85281
289	0.00642843	-90.86046
289.5	0.006349142	-48.17809
290	0.006440412	-79.39438
290.5	0.006353918	-90.99649
291	0.006439909	-100.1143
291.5	0.006403085	-77.52534
292	0.006545451	-79.49911
292.5	0.006339726	-89.38239
293	0.006231872	-100.7544
293.5	0.006509822	-81.71283
294	0.006284201	-39.49357
294.5	0.006149272	-84.85638
295	0.006298177	-84.68715
295.5	0.006219157	-106.7356
296	0.006107415	-80.94766
296.5	0.00610663	-94.07291
297	0.006090719	-79.27531
297.5	0.006098792	153.4563
298	0.006086438	-86.88335
298.5	0.005925068	-95.80634
299	0.006106914	-101.1372
299.5	0.006088425	-96.58052
300	0.006065174	-135.53
300.5	0.006034741	-119.6927
301	0.006054072	-105.214
301.5	0.006205487	-110.9017
302	0.005870274	-130.1052
302.5	0.006024886	-105.1571
303	0.006005463	-135.0041
303.5	0.005947731	-114.4793
304	0.005859492	-90.80572
304.5	0.005897433	-94.74814
305	0.005935519	-99.0086
305.5	0.005872214	-94.33147
306	0.005884816	-95.19593
306.5	0.005775896	-104.4418
307	0.005841508	-111.3037
307.5	0.005818235	-110.3131
308	0.005663541	-106.1222
308.5	0.005695326	-102.6188
309	0.005871918	-117.7362
309.5	0.005616844	-117.1172
310	0.005556559	-115.9594
310.5	0.005849542	-110.7543
311	0.005609724	-128.1072
311.5	0.00573315	-157.2139
312	0.005792003	-120.1029
312.5	0.005590132	-112.5825
313	0.005813135	-131.5664
313.5	0.005747756	-83.99199
314	0.005759168	168.6259
314.5	0.00581926	-102.28
315	0.005908626	-105.7557
315.5	0.005571006	-115.2207
316	0.005714371	-109.6224
316.5	0.005869004	-94.54346
317	0.005555514	-112.1656
317.5	0.005574482	-111.7423
318	0.005585321	-104.4964
318.5	0.005500045	-69.46634
319	0.005604042	-126.6552
319.5	0.005756906	-60.22589
320	0.005561096	-71.56966
320.5	0.005797616	-92.24838
321	0.005721725	-110.6299
321.5	0.005603578	-99.43695
322	0.005977827	-133.708
322.5	0.005857843	-129.9076
323	0.005715657	-117.9861
323.5	0.005729546	-136.0974
324	0.00579522	-115.7965
324.5	0.005810983	-153.5816
325	0.005750022	-138.5967
325.5	0.00579705	-122.9105
326	0.005623999	-124.0602
326.5	0.005714603	-144.6403
327	0.005647574	-125.6724
327.5	0.005679845	-127.855
328	0.005785878	-146.7323
328.5	0.005655958	-129.8911
329	0.005572079	-105.2956
329.5	0.005727375	-160.0287
330	0.005900411	-153.0038
330.5	0.005737248	-112.6657
331	0.005771671	-109.3611
331.5	0.005669788	-133.921
332	0.005828101	-146.9043
332.5	0.005686488	-124.976
333	0.005755248	-114.665
333.5	0.005872753	-102.7029
334	0.00568567	-77.08355
334.5	0.005809663	-103.226
335	0.005716668	-120.9584
335.5	0.005814539	-112.718
336	0.005887949	-122.5172
336.5	0.005632218	-141.9882
337	0.005580042	-150.0392
337.5	0.005717174	-157.3679
338	0.005666445	-160.6648
338.5	0.005480496	-140.8864
339	0.005662649	-154.8438
339.5	0.005665851	176.9047
340	0.005593003	-159.7165
340.5	0.005709323	-153.1855
341	0.005726302	-161.7816
341.5	0.005754636	-174.466
342	0.005782297	-172.8622
342.5	0.005726522	-164.6015
343	0.005594147	170.6846
343.5	0.006014094	-166.8209
344	0.005644616	-136.9254
344.5	0.00561436	-161.751
345	0.005868622	-136.8782
345.5	0.00561123	-135.8306
346	0.005622569	-160.5624
346.5	0.005614508	-163.5475
347	0.005602358	-137.2081
347.5	0.005627722	-154.9998
348	0.005720236	-149.7946
348.5	0.005574007	-145.4781
349	0.005719281	-152.83
349.5	0.005895632	-162.0061
350	0.005662376	-127.3534
350.5	0.005753579	-148.1463
351	0.005917253	-169.6132
351.5	0.005749285	-155.2599
352	0.005685638	-166.9484
352.5	0.005846461	-171.526
353	0.005759271	179.4684
353.5	0.005805008	-174.3059
354	0.005903945	-168.9487
354.5	0.005685624	-153.5677
355	0.006064256	-179.8146
355.5	0.005922521	172.9015
356	0.005848177	-176.3126
356.5	0.005959615	-178.1188
357	0.005925447	168.7924
357.5	0.005887105	-147.4901
358	0.005787233	160.2623
358.5	0.005913746	121.4445
359	0.005843936	-179.9893
359.5	0.005848797	-147.4796
360	0.005762511	-166.6067
360.5	0.005870666	-149.1742
361	0.005901735	-168.4834
361.5	0.005888192	176.5377
362	0.005915458	-163.8216
362.5	0.006031903	-172.2834
363	0.006133743	-169.1216
363.5	0.006047075	-165.1836
364	0.006126801	177.3951
364.5	0.006110694	-166.88
365	0.006180047	-176.6749
365.5	0.006059819	-168.2996
366	0.005894523	142.7725
366.5	0.006055789	161.1644
367	0.005752456	157.3544
367.5	0.005839791	160.0083
368	0.005910769	149.7202
368.5	0.005826277	137.1253
369	0.00597947	157.7355
369.5	0.005925739	176.7075
370	0.005983483	162.8638
370.5	0.006139091	135.7417
371	0.006193616	154.719
371.5	0.005918833	160.6258
372	0.006138437	152.5028
372.5	0.006080857	148.4392
373	0.006007261	179.3165
373.5	0.006084836	129.9495
374	0.006029144	147.1817
374.5	0.005867271	158.6306
375	0.005886423	-158.501
375.5	0.005996381	166.0452
376	0.005812553	-179.0298
376.5	0.006087346	-151.7674
377	0.005900885	-176.1535
377.5	0.005736945	176.5352
378	0.00615139	-174.4047
378.5	0.005999823	149.8608
379	0.005980056	-163.5138
379.5	0.006080691	172.4535
380	0.005868268	-174.5086
380.5	0.005853445	154.6472
381	0.005992308	160.5516
381.5	0.005909026	155.6496
382	0.00580416	133.453
382.5	0.005930302	147.8942
383	0.005745862	141.4577
383.5	0.006006622	157
384	0.006173973	105.499
384.5	0.006114132	134.2361
385	0.006002273	140.2364
385.5	0.006153363	124.3742
386	0.006070371	125.9201
386.5	0.006053874	133.4011
387	0.00621685	140.2052
387.5	0.005834449	144.4281
388	0.005913653	174.5365
388.5	0.00584244	101.3342
389	0.005791013	144.603
389.5	0.006002484	161.2883
390	0.005887966	159.1063
390.5	0.005828967	143.3713
391	0.005914868	148.9075
391.5	0.006061266	157.7167
392	0.006138467	152.2519
392.5	0.006189597	170.6186
393	0.006177963	127.5419
393.5	0.006192758	141.6787
394	0.006223473	145.7147
394.5	0.00617819	147.4913
395	0.006269762	149.8583
395.5	0.006060568	140.9552
396	0.005988439	140.2601
396.5	0.005879201	108.8201
397	0.005967731	135.9706
397.5	0.00596397	125.4037
398	0.005917045	121.8522
398.5	0.005992457	114.7773
399	0.005908999	135.4549
399.5	0.006202966	126.3578
400	0.006011473	141.8774
