Source File Name:	6,2,0
Signal:	FFT - Vib Velocity - Mag. & Phase

Frequency	Magnitude	Phase
[ Hz ]	[ m/s ]	[ ° ]
20	0.07709171	151.8909
20.5	0.07066963	89.74694
21	0.05472088	30.27482
21.5	0.03880617	-14.62579
22	0.02992974	-57.76711
22.5	0.02562749	-99.67197
23	0.02209986	-137.1501
23.5	0.01972695	-178.6714
24	0.01796041	142.099
24.5	0.01633369	103.4015
25	0.01589166	64.82059
25.5	0.01470943	26.09994
26	0.01357286	-12.98265
26.5	0.01294831	-51.82819
27	0.01214543	-90.47093
27.5	0.01162009	-129.5418
28	0.01116711	-168.7043
28.5	0.01094481	151.81
29	0.01067821	114.1233
29.5	0.01026979	75.08119
30	0.009964491	36.2561
30.5	0.009705652	-0.6774968
31	0.009284479	-38.81168
31.5	0.008951774	-77.8879
32	0.008967142	-116.6806
32.5	0.008901481	-154.0893
33	0.008629308	167.6098
33.5	0.008713343	139.2657
34	0.008853223	90.57759
34.5	0.008612748	53.59459
35	0.008419081	15.2919
35.5	0.008423842	-22.73626
36	0.008582726	-60.67775
36.5	0.008457712	-98.134
37	0.008580501	-137.4553
37.5	0.008881154	-177.4666
38	0.009020169	144.9084
38.5	0.009019952	106.1311
39	0.009098342	66.3365
39.5	0.009099412	27.56937
40	0.008928679	-10.80274
40.5	0.008642057	-49.9954
41	0.008702399	-88.73484
41.5	0.008600766	-126.2744
42	0.00849266	-164.3277
42.5	0.00855828	156.974
43	0.008747141	119.7372
43.5	0.008766417	83.10334
44	0.008771265	44.4714
44.5	0.008956313	5.917123
45	0.009043111	-32.55813
45.5	0.00889763	-70.74158
46	0.008809281	-110.2829
46.5	0.008855642	-148.5618
47	0.008880351	173.7746
47.5	0.008676698	136.5168
48	0.008854143	97.90083
48.5	0.008989313	61.21564
49	0.008166723	28.53693
49.5	0.008635742	-14.08138
50	0.00895063	-51.62782
50.5	0.009110413	-88.10627
51	0.009039025	-126.3638
51.5	0.009151112	-164.9203
52	0.009248439	157.7846
52.5	0.009292386	120.9302
53	0.009345501	83.36401
53.5	0.009348233	45.17575
54	0.009523412	9.171855
54.5	0.009608403	-27.90342
55	0.009712277	-66.26287
55.5	0.009993877	-104.4614
56	0.01011108	-141.3282
56.5	0.01019097	-179.284
57	0.01033607	142.9967
57.5	0.01061843	105.7628
58	0.01066124	69.1776
58.5	0.01073129	31.21405
59	0.0109862	-6.761707
59.5	0.01119546	-43.67514
60	0.01123747	-81.04284
60.5	0.01143199	-119.2335
61	0.01177654	-156.8947
61.5	0.01204417	166.0293
62	0.01220876	128.0833
62.5	0.01252577	89.90965
63	0.01284073	52.59192
63.5	0.01299696	15.24753
64	0.01315985	-23.01243
64.5	0.0135401	-60.87365
65	0.01385828	-98.23181
65.5	0.01406103	-136.0824
66	0.01446487	-174.3868
66.5	0.01495174	147.7849
67	0.01527449	110.164
67.5	0.01558163	71.87983
68	0.01602752	33.54418
68.5	0.01647388	-4.130792
69	0.01681071	-42.09249
69.5	0.01724987	-80.86082
70	0.01788477	-119.1784
70.5	0.01841469	-157.2279
71	0.0189484	164.0463
71.5	0.01970954	125.0956
72	0.02056615	86.39767
72.5	0.02125523	47.28517
73	0.02211572	7.234748
73.5	0.02305275	-33.10961
74	0.02381631	-73.67422
74.5	0.02443388	-115.0173
75	0.02499739	-157.073
75.5	0.02533107	160.9211
76	0.02517479	118.4757
76.5	0.02468001	75.45026
77	0.02391485	32.5562
77.5	0.02263693	-10.05071
78	0.02085222	-52.81631
78.5	0.01885728	-95.07264
79	0.01668683	-135.7051
79.5	0.01428586	-174.39
80	0.01213337	148.7424
80.5	0.01050567	115.1875
81	0.009199055	84.88763
81.5	0.008335719	56.40518
82	0.008013953	28.21153
82.5	0.008318353	0.2724552
83	0.008891298	-28.80898
83.5	0.009583646	-60.50156
84	0.01063579	-94.34393
84.5	0.01188819	-129.2648
85	0.01308108	-164.8044
85.5	0.01428038	158.1853
86	0.01575029	120.5582
86.5	0.01734403	82.76411
87	0.01886362	44.12138
87.5	0.0205209	4.409258
88	0.0224316	-35.86895
88.5	0.02423755	-76.55481
89	0.02592076	-118.342
89.5	0.02764779	-160.862
90	0.02920914	156.2662
90.5	0.03019101	112.7638
91	0.03072046	68.43817
91.5	0.03072206	24.08481
92	0.02986351	-19.96297
92.5	0.02837157	-63.85518
93	0.02667408	-107.0677
93.5	0.02477476	-148.7679
94	0.02272418	170.2825
94.5	0.02092239	129.999
95	0.01942386	90.77567
95.5	0.01794958	52.28655
96	0.01658189	13.83256
96.5	0.01551921	-24.55307
97	0.01453068	-61.95316
97.5	0.01352126	-99.15495
98	0.01263058	-136.5348
98.5	0.01202465	-173.2755
99	0.01142337	150.9653
99.5	0.01077942	114.7687
100	0.01037927	78.06316
100.5	0.01004211	42.08764
101	0.009637443	6.827611
101.5	0.00925158	-29.45072
102	0.009088308	-65.85176
102.5	0.008933214	-101.3232
103	0.008689377	-136.9016
103.5	0.008545976	-173.6217
104	0.008564133	150.2578
104.5	0.008494373	114.8028
105	0.008314948	78.46152
105.5	0.008299666	41.57788
106	0.008353585	5.294148
106.5	0.008251091	-30.42608
107	0.008183288	-67.58186
107.5	0.008267602	-104.6543
108	0.008358139	-140.423
108.5	0.008349023	-176.4672
109	0.008499358	146.5074
109.5	0.00888479	109.6311
110	0.0091843	72.7359
110.5	0.009379726	34.32067
111	0.00968203	-4.950224
111.5	0.01005487	-43.62161
112	0.01022609	-82.72872
112.5	0.01040479	-123.1176
113	0.01069454	-163.4616
113.5	0.01084996	156.8695
114	0.01085199	116.4504
114.5	0.01093453	75.20111
115	0.01105649	34.90616
115.5	0.01098842	-5.62686
116	0.0108785	-47.19672
116.5	0.01096132	-88.55993
117	0.01096117	-129.3199
117.5	0.01084659	-170.9259
118	0.01088858	146.7115
118.5	0.01096295	104.8263
119	0.01085102	62.82421
119.5	0.01074969	19.55013
120	0.01084488	-23.58274
120.5	0.01084407	-66.52039
121	0.01077407	-110.6633
121.5	0.01087225	-155.7428
122	0.01096	159.656
122.5	0.01080847	114.5767
123	0.01070202	68.17495
123.5	0.01063546	22.55172
124	0.01041325	-22.66327
124.5	0.01009125	-68.81014
125	0.009977206	-114.3494
125.5	0.009776876	-158.4804
126	0.009466751	157.0992
126.5	0.009352158	112.7516
127	0.009311465	69.68935
127.5	0.009087898	27.11931
128	0.008968652	-16.35136
128.5	0.009028796	-58.70757
129	0.009003642	-100.0023
129.5	0.008932505	-141.98
130	0.00907438	175.7927
130.5	0.009217702	134.8333
131	0.009140193	93.81408
131.5	0.009125374	51.95156
132	0.009197261	10.9578
132.5	0.009148274	-28.95119
133	0.008968797	-69.81078
133.5	0.008965132	-110.53
134	0.00894771	-149.3173
134.5	0.008760619	171.2954
135	0.008627199	131.8887
135.5	0.008674975	93.41927
136	0.008656345	56.38779
136.5	0.008597839	18.53428
137	0.008744697	-19.84819
137.5	0.009030857	-57.34768
138	0.009174247	-94.84927
138.5	0.009360991	-133.6541
139	0.009722696	-172.5296
139.5	0.0100105	149.6207
140	0.01018772	111.2218
140.5	0.01047442	71.82253
141	0.01088982	33.05413
141.5	0.0111332	-5.601296
142	0.01133463	-45.30606
142.5	0.01167821	-85.30144
143	0.01196634	-124.4517
143.5	0.01206967	-163.8008
144	0.0122354	156.0671
144.5	0.01250742	116.5405
145	0.01262748	77.35287
145.5	0.01260788	37.43126
146	0.01274642	-2.808539
146.5	0.01284252	-42.24326
147	0.01273946	-81.71323
147.5	0.01267519	-121.9467
148	0.01273248	-161.5471
148.5	0.01267676	159.5301
149	0.0124877	119.9342
149.5	0.0124496	80.06605
150	0.01240852	40.96449
150.5	0.01217741	2.081814
151	0.01196432	-37.58402
151.5	0.01195123	-76.83268
152	0.01188027	-115.3757
152.5	0.01167962	-154.5695
153	0.01162466	165.6973
153.5	0.01165873	126.5337
154	0.01147654	87.612
154.5	0.01126617	47.50689
155	0.01117041	7.494683
155.5	0.01101458	-31.58848
156	0.01067208	-71.26835
156.5	0.01041377	-111.6751
157	0.01026386	-151.2029
157.5	0.009900878	169.624
158	0.009459162	129.7325
158.5	0.009154446	89.81594
159	0.008818083	51.46055
159.5	0.008333205	12.86523
160	0.007957813	-26.66252
160.5	0.007715148	-65.41851
161	0.007333581	-103.0593
161.5	0.006880139	-141.5175
162	0.006611878	179.6282
162.5	0.006380598	142.9901
163	0.006039689	106.4517
163.5	0.005734959	68.59827
164	0.005672805	31.20285
164.5	0.005543405	-5.026879
165	0.005283009	-42.23243
165.5	0.005182141	-81.22921
166	0.005156778	-118.8801
166.5	0.004979309	-155.4613
167	0.00473579	165.9722
167.5	0.00469089	127.4438
168	0.004620422	90.69648
168.5	0.004370305	53.44762
169	0.004158929	14.16227
169.5	0.004104585	-23.66667
170	0.00395463	-59.42241
170.5	0.003709253	-97.11195
171	0.003646639	-135.9811
171.5	0.003659026	-173.0516
172	0.003468903	150.9235
172.5	0.003267665	111.8
173	0.003216036	73.16901
173.5	0.003117805	37.96953
174	0.002877685	1.548832
174.5	0.002726163	-37.75783
175	0.002747081	-74.65762
175.5	0.002611575	-109.3819
176	0.002417826	-147.0108
176.5	0.00237467	173.3343
177	0.002352215	138.1066
177.5	0.002142971	103.6379
178	0.001950606	65.09141
178.5	0.001920595	27.64025
179	0.00182378	-4.832638
179.5	0.001599426	-37.99092
180	0.001460032	-75.85365
180.5	0.001491135	-107.4101
181	0.001487511	-134.8674
181.5	0.001401271	-166.2424
182	0.001475927	156.3707
182.5	0.00163959	122.8926
183	0.001642342	91.92146
183.5	0.001553235	54.96334
184	0.001628749	17.63312
184.5	0.001763657	-14.76736
185	0.001745064	-47.22099
185.5	0.001747781	-85.82885
186	0.001916925	-123.7999
186.5	0.002031009	-157.3066
187	0.001987974	166.7512
187.5	0.002011325	127.3991
188	0.002174631	91.27064
188.5	0.002190324	57.84099
189	0.002133856	20.55057
189.5	0.002209756	-18.74171
190	0.002347989	-53.42255
190.5	0.002320235	-87.77239
191	0.002310546	-125.7901
191.5	0.002499613	-162.8017
192	0.002645382	163.2376
192.5	0.002673831	127.4844
193	0.002766159	87.84909
193.5	0.002960165	50.87331
194	0.003025275	15.66141
194.5	0.00300059	-21.63588
195	0.003163144	-60.25858
195.5	0.00339418	-95.91301
196	0.003507831	-131.6055
196.5	0.003646849	-170.9169
197	0.003928948	150.4023
197.5	0.004160793	113.3938
198	0.004212495	75.05462
198.5	0.004387746	34.87774
199	0.00465039	-3.669592
199.5	0.004754098	-41.6122
200	0.004819648	-81.76763
200.5	0.005012558	-122.0103
201	0.005182554	-160.4296
201.5	0.005151256	160.9263
202	0.00520534	120.8763
202.5	0.00536717	81.82111
203	0.005409383	44.11895
203.5	0.005357828	4.485759
204	0.005442546	-35.76252
204.5	0.0055317	-74.21207
205	0.005414546	-112.8327
205.5	0.005315754	-152.5457
206	0.005366638	168.7253
206.5	0.005316768	131.9196
207	0.005184083	94.01041
207.5	0.005197799	55.11829
208	0.005274201	17.60991
208.5	0.005209144	-19.50108
209	0.005103936	-58.27769
209.5	0.005173713	-96.73495
210	0.005207419	-133.5174
210.5	0.005119993	-170.7577
211	0.00509815	150.3402
211.5	0.005210645	112.7
212	0.005182329	76.03514
212.5	0.005061113	37.97038
213	0.005108743	-0.5793447
213.5	0.005190149	-37.6247
214	0.005134395	-74.48919
214.5	0.00511563	-113.5143
215	0.005216826	-152.0087
215.5	0.005247216	170.7062
216	0.005113378	132.4846
216.5	0.005067314	93.27406
217	0.005082759	55.6168
217.5	0.00495007	18.96104
218	0.004807219	-19.22684
218.5	0.004819613	-57.70222
219	0.004836516	-94.52621
219.5	0.004683946	-131.6525
220	0.004589912	-170.4315
220.5	0.004614092	151.8523
221	0.00452331	115.8125
221.5	0.004355012	78.31858
222	0.004290566	39.70508
222.5	0.004284679	3.154495
223	0.004102251	-33.14924
223.5	0.003915793	-70.57415
224	0.003900505	-108.0364
224.5	0.003860234	-142.8437
225	0.003719368	-178.1924
225.5	0.003655233	144.0944
226	0.003694134	107.866
226.5	0.003636214	72.88029
227	0.003454092	36.46461
227.5	0.003404997	-1.06044
228	0.00340263	-35.82669
228.5	0.003308841	-69.73998
229	0.003201649	-105.6281
229.5	0.003275435	-141.7746
230	0.003344894	-175.5805
230.5	0.003273083	149.8902
231	0.003255622	113.111
231.5	0.0033511	77.55035
232	0.0034111	43.93405
232.5	0.003347449	8.400014
233	0.003404063	-28.79237
233.5	0.00353842	-64.29996
234	0.003547975	-98.38815
234.5	0.003532145	-134.4601
235	0.003683181	-171.1011
235.5	0.003868566	154.1816
236	0.00392036	118.6581
236.5	0.003975903	81.13108
237	0.004151877	43.73635
237.5	0.004246661	7.920914
238	0.004217546	-28.59984
238.5	0.004283021	-66.5702
239	0.004458174	-102.9596
239.5	0.004528617	-138.6213
240	0.004550019	-175.8395
240.5	0.004708035	146.1275
241	0.004858062	109.7009
241.5	0.004864187	73.05214
242	0.004871698	34.95372
242.5	0.005008286	-2.75778
243	0.005089147	-39.16263
243.5	0.005035329	-76.5896
244	0.005092049	-114.9922
244.5	0.005181563	-152.1125
245	0.005171386	171.8516
245.5	0.005107406	134.3295
246	0.005195996	96.93343
246.5	0.005297636	60.68988
247	0.005266187	23.82922
247.5	0.005244445	-14.46448
248	0.005331043	-52.24489
248.5	0.005326753	-88.6174
249	0.005206299	-125.7739
249.5	0.005186232	-163.3568
250	0.005264416	160.341
250.5	0.005220278	124.7149
251	0.005159632	87.40377
251.5	0.005224213	50.01992
252	0.005283624	14.01124
252.5	0.005208752	-22.42415
253	0.005162641	-60.12831
253.5	0.005267326	-96.91454
254	0.005275749	-132.7159
254.5	0.005205633	-169.5141
255	0.005223499	152.8314
255.5	0.005285677	116.7225
256	0.005241233	81.11169
256.5	0.005180039	44.08331
257	0.005274436	7.148063
257.5	0.005368755	-28.81887
258	0.005332339	-65.29916
258.5	0.005339293	-103.3182
259	0.00542636	-140.4664
259.5	0.005416017	-176.464
260	0.005314132	146.7492
260.5	0.005337396	109.4521
261	0.005420624	73.24581
261.5	0.005384181	37.4205
262	0.005346039	-0.07462274
262.5	0.005411285	-37.49827
263	0.005462256	-73.70329
263.5	0.005377009	-110.2661
264	0.005355355	-147.8299
264.5	0.005435453	175.2637
265	0.005413197	139.4429
265.5	0.005324296	102.5279
266	0.005306162	64.90848
266.5	0.00534716	28.88955
267	0.005267391	-6.849394
267.5	0.00520678	-43.7608
268	0.005283016	-80.85426
268.5	0.005349678	-116.7298
269	0.005286672	-153.221
269.5	0.005255627	168.8631
270	0.005292111	132.1067
270.5	0.005227345	96.36115
271	0.005094666	60.03902
271.5	0.005092167	22.96108
272	0.005139531	-12.69366
272.5	0.005104853	-48.34462
273	0.005044023	-85.40839
273.5	0.005101756	-122.3419
274	0.005143907	-158.0196
274.5	0.005054454	166.0107
275	0.005032232	128.8458
275.5	0.005094576	92.35104
276	0.005080553	56.91985
276.5	0.004977308	20.46949
277	0.004972658	-16.59084
277.5	0.005035945	-52.28637
278	0.004992286	-87.45858
278.5	0.00496727	-124.034
279	0.005062257	-160.8935
279.5	0.005153408	163.4787
280	0.005090936	127.281
280.5	0.005071024	89.87591
281	0.005129499	53.20776
281.5	0.005109433	17.89525
282	0.005026075	-18.17562
282.5	0.005065547	-55.27083
283	0.005164717	-90.98503
283.5	0.005170303	-126.7554
284	0.005131825	-163.6966
284.5	0.005214904	159.2216
285	0.005270057	123.5184
285.5	0.005219332	87.50781
286	0.005203162	50.23919
286.5	0.005279921	13.49127
287	0.005292617	-22.15232
287.5	0.005197494	-58.71489
288	0.005224458	-95.89137
288.5	0.005305607	-131.808
289	0.005307239	-167.244
289.5	0.005284184	155.7781
290	0.005369647	118.6099
290.5	0.005438222	82.57292
291	0.00536791	46.16689
291.5	0.005308387	8.704863
292	0.005353044	-28.05714
292.5	0.005345689	-63.36819
293	0.005272174	-99.69444
293.5	0.005302746	-136.7032
294	0.005421126	-172.7739
294.5	0.00539483	151.4355
295	0.005348132	114.5009
295.5	0.005398317	77.31218
296	0.005440243	41.56157
296.5	0.005378297	5.36516
297	0.005342168	-31.99611
297.5	0.005409242	-68.81322
298	0.005402096	-104.4183
298.5	0.00530045	-140.705
299	0.005321309	-177.6197
299.5	0.005406904	146.5587
300	0.005407336	111.1551
300.5	0.005358482	74.21528
301	0.005445008	36.87497
301.5	0.005479267	0.7598922
302	0.005402149	-35.44733
302.5	0.005335835	-72.814
303	0.005393517	-109.253
303.5	0.005395154	-144.5254
304	0.005333583	179.3129
304.5	0.005366876	142.3464
305	0.005464011	106.0821
305.5	0.005429131	70.45507
306	0.005367	33.49117
306.5	0.005405253	-3.678635
307	0.005463423	-39.44471
307.5	0.005397482	-75.46538
308	0.005363991	-112.83
308.5	0.005433426	-149.5048
309	0.005421072	175.0128
309.5	0.005330029	138.8776
310	0.005334994	102.0538
310.5	0.00543468	66.1628
311	0.005431077	30.53296
311.5	0.005387745	-6.453426
312	0.005452887	-43.83728
312.5	0.005488623	-79.92063
313	0.005409278	-115.9883
313.5	0.005336493	-152.9851
314	0.005408193	170.6926
314.5	0.005432286	135.3347
315	0.005371484	99.34319
315.5	0.005392971	62.07887
316	0.005487842	25.6864
316.5	0.005452767	-10.00328
317	0.005381386	-47.10088
317.5	0.005428453	-84.05572
318	0.005487397	-120.0993
318.5	0.005413714	-155.9876
319	0.005362512	166.8248
319.5	0.005418594	130.2185
320	0.005420709	94.78622
320.5	0.005320994	58.89587
321	0.005331551	21.90286
321.5	0.005437375	-14.27481
322	0.005432113	-49.9641
322.5	0.005377517	-87.04222
323	0.005399969	-124.5324
323.5	0.005438231	-160.4193
324	0.005329763	163.7742
324.5	0.005253944	127.0431
325	0.005324417	90.64356
325.5	0.005338956	55.48688
326	0.005278823	19.44402
326.5	0.00528468	-17.87367
327	0.005363696	-54.23362
327.5	0.005347006	-89.75864
328	0.005255634	-126.5556
328.5	0.00529201	-163.6401
329	0.00535428	160.6155
329.5	0.005278439	125.0378
330	0.00519522	87.93037
330.5	0.005247795	51.56563
331	0.005258225	16.33569
331.5	0.005171436	-19.31254
332	0.005188121	-56.3897
332.5	0.005302765	-92.56778
333	0.005315429	-128.0922
333.5	0.005244946	-164.9126
334	0.005254144	157.8631
334.5	0.005310623	122.1698
335	0.00521034	86.85232
335.5	0.005152454	50.43694
336	0.005223974	13.93792
336.5	0.005307609	-21.34861
337	0.005232317	-57.4257
337.5	0.005237232	-94.70601
338	0.005338443	-130.988
338.5	0.005341449	-166.2585
339	0.005261669	157.2533
339.5	0.005295682	120.117
340	0.00536448	84.50433
340.5	0.005316423	49.00694
341	0.005244335	12.33785
341.5	0.005325542	-24.35509
342	0.005389884	-59.56918
342.5	0.005353322	-95.19803
343	0.005371129	-132.5026
343.5	0.00551146	-169.0262
344	0.005536205	155.3335
344.5	0.005440046	118.7394
345	0.005443286	81.36737
345.5	0.005513482	45.64286
346	0.005466304	10.49956
346.5	0.005425909	-26.18625
347	0.005529729	-63.05502
347.5	0.005634879	-98.66107
348	0.005579509	-134.7234
348.5	0.005582782	-172.1184
349	0.005680141	151.255
349.5	0.0057042	115.735
350	0.005617379	79.29744
350.5	0.005634492	41.86853
351	0.005720275	5.703754
351.5	0.005668302	-29.81499
352	0.005592908	-66.55605
352.5	0.005676771	-103.5565
353	0.005765098	-138.9117
353.5	0.005732048	-174.7768
354	0.005715785	147.8786
354.5	0.00583026	111.0022
355	0.005849327	75.2238
355.5	0.005717489	38.66626
356	0.005709803	1.203288
356.5	0.005783906	-34.68656
357	0.005757319	-69.83728
357.5	0.005700974	-106.4894
358	0.005801053	-143.679
358.5	0.005887636	-179.43
359	0.005813214	144.7481
359.5	0.005773145	107.3604
360	0.005867483	70.61768
360.5	0.005891077	35.1942
361	0.005785262	-1.345227
361.5	0.005797843	-38.69667
362	0.005884116	-74.89993
362.5	0.005849563	-110.2061
363	0.005764361	-146.8179
363.5	0.005839963	176.1384
364	0.005949554	140.6597
364.5	0.005893718	104.8473
365	0.005862629	67.35152
365.5	0.005965086	30.14802
366	0.005957402	-5.308867
366.5	0.005829742	-41.72778
367	0.005815141	-78.95667
367.5	0.005922489	-114.8374
368	0.00591361	-150.0098
368.5	0.005845981	173.3517
369	0.005940209	136.0528
369.5	0.006026209	100.1695
370	0.005953828	64.31416
370.5	0.00588088	26.99113
371	0.005984263	-9.867079
371.5	0.006012598	-45.44972
372	0.005905534	-81.66819
372.5	0.005896979	-119.2042
373	0.005993478	-155.2462
373.5	0.00596715	169.5895
374	0.005872829	133.0315
374.5	0.005956863	95.95821
375	0.00606945	60.18651
375.5	0.006014714	24.26425
376	0.00596333	-13.24361
376.5	0.006043191	-50.52931
377	0.006055661	-86.00948
377.5	0.005911913	-122.0955
378	0.005900758	-159.0964
378.5	0.006024413	164.8249
379	0.006029924	129.7602
379.5	0.005947291	93.01571
380	0.006017682	55.63778
380.5	0.006112697	19.6669
381	0.006039342	-16.1596
381.5	0.005964999	-53.43065
382	0.006073806	-90.41992
382.5	0.006100682	-125.8977
383	0.006008084	-162.0094
383.5	0.005978082	160.6075
384	0.006083537	124.3601
384.5	0.006065071	89.22598
385	0.005972682	52.74851
385.5	0.006044082	15.50079
386	0.006187292	-20.59104
386.5	0.006127906	-56.41797
387	0.00604124	-94.06168
387.5	0.006123255	-131.1576
388	0.006146724	-166.56
388.5	0.006020354	157.6187
389	0.006007497	120.3605
389.5	0.006135246	84.1665
390	0.006147983	48.78489
390.5	0.006062301	11.96131
391	0.006106299	-25.60146
391.5	0.006211286	-61.74567
392	0.006124058	-97.44136
392.5	0.00604357	-134.6136
393	0.006133005	-171.7414
393.5	0.006175266	152.9036
394	0.006061384	116.7972
394.5	0.006015669	79.43336
395	0.006136115	43.1333
395.5	0.006119827	7.934611
396	0.006029723	-28.68263
396.5	0.006096748	-66.23679
397	0.006213254	-102.3851
397.5	0.006148214	-138.2808
398	0.006033679	-175.6945
398.5	0.00608564	147.3105
399	0.006101078	111.9921
399.5	0.005990551	76.481
400	0.005955612	39.10577
