Source File Name:	9,2,2
Signal:	FFT - Vib Velocity - Mag. & Phase

Frequency	Magnitude	Phase
[ Hz ]	[ m/s ]	[ ° ]
20	0.02930268	68.767
20.5	0.02425634	27.50205
21	0.02271732	-14.9123
21.5	0.02289385	-58.26258
22	0.02116132	-101.2812
22.5	0.01739161	-143.0065
23	0.01759651	-179.6411
23.5	0.01791065	142.1828
24	0.0166971	102.3211
24.5	0.01476818	57.85073
25	0.01493621	17.77913
25.5	0.01543652	-21.65527
26	0.01578845	-63.1637
26.5	0.01437308	-108.5262
27	0.01340118	-151.3217
27.5	0.01294093	175.7213
28	0.01201209	143.8631
28.5	0.01191428	103.4879
29	0.01244913	65.25137
29.5	0.01295409	29.8866
30	0.01316338	-8.766366
30.5	0.01263751	-48.06001
31	0.0135355	-88.31181
31.5	0.01391149	-126.8109
32	0.01255498	-164.7247
32.5	0.01254633	155.2334
33	0.01308501	118.0343
33.5	0.0146175	80.10918
34	0.014033	39.83098
34.5	0.0139467	-2.679013
35	0.01470486	-39.47776
35.5	0.01513363	-78.86669
36	0.01421723	-120.1139
36.5	0.01360688	-159.4491
37	0.01360779	166.8563
37.5	0.01359199	134.9951
38	0.01399932	94.62402
38.5	0.01415177	52.80065
39	0.01424909	18.4558
39.5	0.01496424	-16.96922
40	0.0156397	-57.36093
40.5	0.01567111	-101.8631
41	0.01531191	-140.8491
41.5	0.01475395	-173.4195
42	0.01456502	149.1586
42.5	0.01496323	109.6731
43	0.01512026	72.03695
43.5	0.01483644	36.6513
44	0.01484704	1.248392
44.5	0.01517157	-39.54645
45	0.01525246	-78.40977
45.5	0.01533295	-113.0267
46	0.01554893	-150.7723
46.5	0.01577013	170.6108
47	0.01667203	131.7531
47.5	0.01725651	93.62267
48	0.01721841	57.75805
48.5	0.01805153	18.79377
49	0.01819205	-18.45117
49.5	0.01852745	-59.30704
50	0.01808466	-96.10402
50.5	0.01703605	-132.6186
51	0.01762669	-168.3282
51.5	0.01873022	154.0709
52	0.01906946	115.684
52.5	0.01946129	76.827
53	0.01951398	37.97057
53.5	0.0205456	-1.439187
54	0.02109275	-41.41639
54.5	0.02069845	-81.04594
55	0.02064929	-120.5182
55.5	0.0208595	-156.8871
56	0.02147976	166.1044
56.5	0.02220863	127.0743
57	0.02204223	88.17448
57.5	0.02309137	49.57825
58	0.0236162	10.22611
58.5	0.0230262	-29.008
59	0.02324981	-69.08891
59.5	0.02286366	-106.8446
60	0.02298091	-143.0678
60.5	0.0239024	177.1944
61	0.024164	137.2761
61.5	0.02508895	98.51335
62	0.0257477	59.18598
62.5	0.02552817	18.94349
63	0.02691489	-22.4314
63.5	0.02749312	-62.63825
64	0.02618571	-101.8937
64.5	0.02612341	-141.8642
65	0.02651518	179.3151
65.5	0.02713887	140.6981
66	0.02695613	100.3625
66.5	0.02539771	57.73634
67	0.02564833	16.19829
67.5	0.02528628	-21.62696
68	0.0233802	-62.50142
68.5	0.02266108	-105.468
69	0.0218571	-143.0926
69.5	0.02149426	-178.5618
70	0.02117966	143.8177
70.5	0.02007292	102.9323
71	0.02055559	63.07784
71.5	0.0200522	28.31944
72	0.0188454	-10.02019
72.5	0.01908268	-54.16528
73	0.017944	-92.56839
73.5	0.01703804	-126.3787
74	0.01731088	-162.2828
74.5	0.01734051	158.9797
75	0.01825872	117.8883
75.5	0.01804022	80.95744
76	0.01711112	44.13255
76.5	0.01809327	2.227808
77	0.01803276	-38.07756
77.5	0.01704512	-77.83644
78	0.01692458	-117.6767
78.5	0.01644682	-156.1062
79	0.01668407	163.3961
79.5	0.01668228	122.9064
80	0.01604941	82.02083
80.5	0.01621637	40.45024
81	0.01567906	0.773479
81.5	0.01481309	-41.94748
82	0.01453126	-83.8951
82.5	0.01368743	-121.3072
83	0.01273742	-161.2219
83.5	0.01224314	158.8216
84	0.01237012	119.5188
84.5	0.01229309	78.53608
85	0.0108951	38.57216
85.5	0.01022883	-2.929691
86	0.01064127	-44.18884
86.5	0.009961389	-81.36512
87	0.008805439	-124.1011
87.5	0.007793094	-168.4035
88	0.007641784	160.8591
88.5	0.008276714	125.4001
89	0.007839691	80.97592
89.5	0.007638426	35.91859
90	0.008118683	-4.73217
90.5	0.00785537	-43.3048
91	0.007471387	-90.02763
91.5	0.007471734	-142.9836
92	0.006355449	173.4543
92.5	0.005336192	134.0289
93	0.005076955	85.00868
93.5	0.005242746	38.88887
94	0.005157986	-3.511076
94.5	0.004281362	-43.88049
95	0.004450925	-87.06295
95.5	0.005357655	-130.454
96	0.005008163	-173.2602
96.5	0.004443801	132.8562
97	0.004383776	83.92258
97.5	0.003881377	48.9779
98	0.003905024	9.639993
98.5	0.003853387	-39.57899
99	0.004365528	-77.53648
99.5	0.005162261	-112.5915
100	0.004516022	-154.6671
100.5	0.005585005	157.3375
101	0.006843601	113.4785
101.5	0.006033994	67.50632
102	0.005860512	20.11997
102.5	0.005683943	-22.76975
103	0.00532864	-58.67856
103.5	0.005370925	-91.30437
104	0.004840686	-137.7171
104.5	0.005278855	-173.0803
105	0.00621152	157.3469
105.5	0.006176443	109.1494
106	0.007007437	59.90671
106.5	0.006623481	16.03571
107	0.005858497	-24.90253
107.5	0.005980962	-59.2878
108	0.005687859	-99.45926
108.5	0.005615734	-137.7262
109	0.005309319	-165.6322
109.5	0.005618412	159.312
110	0.007271294	119.1216
110.5	0.007301135	76.3602
111	0.006519262	30.28272
111.5	0.006929727	-8.42417
112	0.006602596	-47.12299
112.5	0.0066326	-84.30782
113	0.006476558	-122.7673
113.5	0.005970571	-159.5299
114	0.007291572	167.8477
114.5	0.007594908	128.9943
115	0.007012883	83.33387
115.5	0.007584166	40.30426
116	0.007358414	1.300862
116.5	0.006641635	-34.02345
117	0.006506275	-76.04638
117.5	0.006442316	-119.3314
118	0.007247438	-149.4316
118.5	0.007338322	176.6635
119	0.006857981	134.5203
119.5	0.007993236	89.34579
120	0.008124955	49.98542
120.5	0.006961024	11.49956
121	0.006316733	-34.84143
121.5	0.006415399	-73.86983
122	0.006786142	-104.261
122.5	0.00630477	-139.3788
123	0.005964161	-178.9574
123.5	0.007454802	141.7762
124	0.008316433	106.7547
124.5	0.008088146	69.00153
125	0.007779348	19.63513
125.5	0.007495718	-22.07497
126	0.007711595	-55.16753
126.5	0.007065895	-95.61388
127	0.006346579	-137.1156
127.5	0.006752694	-174.8291
128	0.006690536	152.6618
128.5	0.006539851	120.5138
129	0.006646106	73.56654
129.5	0.006599815	29.41753
130	0.006343244	0.4707274
130.5	0.005671663	-36.86586
131	0.005327644	-78.11659
131.5	0.005796021	-115.525
132	0.00575177	-150.3418
132.5	0.005857	-179.4609
133	0.006323218	136.0715
133.5	0.007060065	89.61901
134	0.006742217	49.94263
134.5	0.005911394	3.952029
135	0.005831914	-37.68834
135.5	0.00578372	-77.19766
136	0.005315598	-119.0989
136.5	0.00447101	-150.2939
137	0.004320837	174.8049
137.5	0.005123102	142.2959
138	0.005891454	106.4253
138.5	0.005669808	61.53201
139	0.005310683	26.77693
139.5	0.005225485	-11.60947
140	0.005170489	-49.69342
140.5	0.005094871	-78.60747
141	0.004670108	-114.7445
141.5	0.004968032	-149.4167
142	0.006056707	174.675
142.5	0.006137562	129.4421
143	0.005848354	82.86172
143.5	0.006054251	35.8324
144	0.005785844	-8.189346
144.5	0.005227444	-44.69501
145	0.004442945	-87.06685
145.5	0.003861219	-122.6771
146	0.004033054	-141.0616
146.5	0.004094406	-166.9571
147	0.0047354	151.9269
147.5	0.005059922	111.537
148	0.004347362	70.01487
148.5	0.004305278	30.21514
149	0.004206421	-5.432137
149.5	0.004294015	-48.77319
150	0.004588315	-88.10056
150.5	0.003867712	-124.4385
151	0.004622079	-159.8064
151.5	0.005392347	161.2924
152	0.004985057	112.9458
152.5	0.005188823	67.72923
153	0.004132034	31.5014
153.5	0.003622069	0.2916703
154	0.003837513	-31.01515
154.5	0.002916609	-65.77054
155	0.003327241	-90.33729
155.5	0.004521959	-119.0723
156	0.004386475	-160.7398
156.5	0.00442498	150.453
157	0.003842555	105.6233
157.5	0.003712663	73.58298
158	0.004123679	37.42701
158.5	0.003357972	-13.0331
159	0.003289056	-54.33706
159.5	0.003553947	-73.70491
160	0.003764746	-101.5642
160.5	0.004057601	-152.1722
161	0.00409992	158.8051
161.5	0.003748278	126.8251
162	0.003463075	99.22581
162.5	0.002763655	63.2007
163	0.002920665	17.23412
163.5	0.003196737	-13.06541
164	0.00319876	-30.74406
164.5	0.003237026	-80.04748
165	0.003236105	-127.0568
165.5	0.003537566	-166.5161
166	0.003775412	152.2618
166.5	0.002931744	117.531
167	0.003082751	62.61863
167.5	0.003606581	28.70816
168	0.002925686	15.44387
168.5	0.002903635	-22.83318
169	0.00300835	-57.26819
169.5	0.003548533	-93.99531
170	0.004214652	-133.5182
170.5	0.003081535	-154.4549
171	0.002589191	153.4175
171.5	0.003732207	118.8271
172	0.003518108	94.07514
172.5	0.00288348	40.61982
173	0.00262859	9.005626
173.5	0.00265144	-24.15956
174	0.003407039	-65.71529
174.5	0.002546273	-98.67085
175	0.001956641	-168.3012
175.5	0.002109448	177.0289
176	0.002170116	173.0955
176.5	0.00194064	122.7453
177	0.002674351	105.5307
177.5	0.003414556	72.24727
178	0.0041511	28.37527
178.5	0.004577205	-9.43886
179	0.003772879	-59.53313
179.5	0.003537469	-94.75404
180	0.003704464	-123.3232
180.5	0.002774703	-175.0565
181	0.002243299	150.7888
181.5	0.002322688	129.5257
182	0.002287142	104.0334
182.5	0.00334769	69.90512
183	0.003195475	25.31491
183.5	0.002902506	-13.61937
184	0.003766227	-43.12256
184.5	0.003230738	-75.2719
185	0.003494769	-118.9891
185.5	0.004567551	-157.8298
186	0.004416846	161.9666
186.5	0.00527263	117.7275
187	0.005333599	75.4743
187.5	0.005268166	32.03662
188	0.005785572	-4.175683
188.5	0.004685529	-40.92633
189	0.004510644	-77.05723
189.5	0.004280114	-106.0272
190	0.003789421	-135.037
190.5	0.004526129	-169.7175
191	0.004482292	157.3702
191.5	0.004745795	116.7141
192	0.005250928	70.7326
192.5	0.004840605	30.38561
193	0.005053812	-1.371977
193.5	0.005022286	-41.99538
194	0.005744882	-81.96029
194.5	0.006607799	-119.1946
195	0.006107481	-162.2851
195.5	0.006192399	161.7672
196	0.006391074	120.5426
196.5	0.006383466	79.40915
197	0.005674695	49.63995
197.5	0.004809496	6.460491
198	0.004927947	-24.95464
198.5	0.004878921	-48.84063
199	0.004748293	-90.1657
199.5	0.005424825	-120.2024
200	0.005528437	-160.492
200.5	0.006011213	154.1824
201	0.005956053	120.6302
201.5	0.005488929	79.07768
202	0.006041407	43.05017
202.5	0.00610033	6.576132
203	0.00624294	-37.74181
203.5	0.006372522	-72.88722
204	0.005750738	-112.1134
204.5	0.005687123	-150.525
205	0.005968825	176.7523
205.5	0.005413822	140.702
206	0.005168781	108.1685
206.5	0.005206512	75.4485
207	0.005022435	45.91319
207.5	0.005905334	11.28977
208	0.006249465	-27.71505
208.5	0.005838691	-68.4484
209	0.006398975	-111.9461
209.5	0.005964488	-148.8452
210	0.005577742	173.1643
210.5	0.00603704	135.7382
211	0.005267428	100.5698
211.5	0.005686063	61.59004
212	0.005906615	30.15041
212.5	0.005038153	-5.100377
213	0.005887574	-45.01536
213.5	0.00611562	-78.41396
214	0.006105793	-119.7276
214.5	0.006537845	-157.0366
215	0.005849358	166.2345
215.5	0.006510661	127.8046
216	0.007015715	97.7012
216.5	0.006727098	58.74086
217	0.0072646	17.20265
217.5	0.006910213	-19.21298
218	0.006867945	-59.03223
218.5	0.006690531	-93.90597
219	0.006224953	-131.6982
219.5	0.006770063	-171.7093
220	0.006526844	155.0359
220.5	0.006362223	121.6415
221	0.006769334	85.51105
221.5	0.007117131	49.50885
222	0.008032025	11.77372
222.5	0.007791949	-29.0038
223	0.007242044	-69.4445
223.5	0.007297588	-108.5832
224	0.006924873	-146.5969
224.5	0.00663436	-179.3639
225	0.006448703	140.7415
225.5	0.00661765	101.5719
226	0.006695604	69.51472
226.5	0.006456721	29.50216
227	0.006498615	-6.77594
227.5	0.006495482	-43.64868
228	0.00659727	-81.74874
228.5	0.006222241	-113.5966
229	0.005836948	-150.6864
229.5	0.006536257	176.8778
230	0.006761473	143.8686
230.5	0.007146278	101.9224
231	0.007582264	61.75808
231.5	0.006947874	19.22043
232	0.006660862	-19.32816
232.5	0.00624049	-55.24125
233	0.005900722	-93.72504
233.5	0.005952266	-124.2097
234	0.005526413	-159.1106
234.5	0.005587849	168.3989
235	0.006219293	136.0936
235.5	0.006289864	98.37194
236	0.006279193	63.52859
236.5	0.006239335	24.82871
237	0.006354144	-12.06272
237.5	0.006368144	-44.81187
238	0.006458072	-81.60635
238.5	0.006708221	-118.1408
239	0.007291819	-158.3118
239.5	0.007629977	161.8966
240	0.006728242	123.9057
240.5	0.006181726	83.08035
241	0.006167108	50.00489
241.5	0.005937578	16.12536
242	0.00574073	-17.38235
242.5	0.005531826	-51.88755
243	0.006056678	-91.23509
243.5	0.006932114	-122.5534
244	0.006791784	-160.8024
244.5	0.007060402	154.8711
245	0.007322978	118.4679
245.5	0.007323081	80.83125
246	0.006961993	45.6498
246.5	0.006786488	10.03605
247	0.007669658	-31.69029
247.5	0.007747111	-65.72105
248	0.007403711	-104.2952
248.5	0.007436317	-147.2095
249	0.007267919	177.2751
249.5	0.007157383	140.9766
250	0.006562436	104.9697
250.5	0.006214072	71.59527
251	0.006763528	35.23928
251.5	0.00665763	0.5772762
252	0.006571857	-32.68344
252.5	0.006886503	-73.15247
253	0.007579627	-112.7444
253.5	0.007791705	-152.6972
254	0.007133558	165.2381
254.5	0.006887147	128.796
255	0.006911667	94.18165
255.5	0.00722632	57.14567
256	0.006923429	21.77745
256.5	0.006355454	-15.79655
257	0.007021423	-50.00964
257.5	0.007094421	-83.2467
258	0.00648997	-124.6588
258.5	0.006763409	-162.057
259	0.006507111	163.791
259.5	0.006535983	129.2915
260	0.006519597	93.52389
260.5	0.006005157	57.27044
261	0.00694926	24.14038
261.5	0.007357954	-9.768008
262	0.006707118	-51.95342
262.5	0.006988742	-93.26807
263	0.006763845	-126.5026
263.5	0.006124577	-158.9555
264	0.006387439	163.613
264.5	0.006260559	125.3746
265	0.006549005	93.17058
265.5	0.007035603	61.89313
266	0.006632939	26.34071
266.5	0.007160798	-16.85835
267	0.007613692	-53.59202
267.5	0.00662165	-87.42577
268	0.006101691	-125.8139
268.5	0.006108298	-160.9601
269	0.006202611	164.2193
269.5	0.006708142	130.2495
270	0.006457945	97.1406
270.5	0.006618778	51.19486
271	0.00752034	11.8185
271.5	0.00713069	-19.75844
272	0.006219391	-60.79665
272.5	0.006352744	-96.97936
273	0.006830325	-134.0215
273.5	0.006712277	-170.4182
274	0.006315925	159.5456
274.5	0.006378298	115.7371
275	0.007547901	74.94865
275.5	0.007738992	41.65774
276	0.006714026	-3.889123
276.5	0.006662572	-43.31041
277	0.007283103	-72.57588
277.5	0.007085473	-108.089
278	0.006884975	-142.3064
278.5	0.007087032	178.8908
279	0.007569381	142.3739
279.5	0.007679505	111.0457
280	0.006820922	70.25167
280.5	0.006869966	27.93207
281	0.007114151	-2.906387
281.5	0.006439311	-38.22138
282	0.00629894	-79.90681
282.5	0.006908697	-116.3102
283	0.007122297	-151.5447
283.5	0.007234998	172.5937
284	0.00701787	132.4364
284.5	0.007229984	90.81637
285	0.007391684	58.32062
285.5	0.006234898	29.05614
286	0.005949822	-10.11516
286.5	0.006673609	-45.98041
287	0.006461763	-77.3952
287.5	0.006223257	-114.3476
288	0.006128518	-150.5032
288.5	0.006338742	170.4662
289	0.007269926	131.1865
289.5	0.006490779	98.82568
290	0.005914129	60.65282
290.5	0.006850637	20.09253
291	0.00687462	-11.71707
291.5	0.006778139	-48.67432
292	0.006546476	-85.16724
292.5	0.006261994	-121.4789
293	0.007063018	-163.1424
293.5	0.006815155	164.3035
294	0.005767965	131.7813
294.5	0.006184318	91.08763
295	0.006654211	57.35349
295.5	0.006564626	23.15737
296	0.006504301	-12.38483
296.5	0.006422617	-47.49008
297	0.007036363	-90.92641
297.5	0.007789036	-126.2191
298	0.006921583	-160.3646
298.5	0.00660758	156.0514
299	0.007462258	119.0453
299.5	0.007085194	83.7035
300	0.006838631	47.65652
300.5	0.006777544	13.40971
301	0.006677704	-28.01858
301.5	0.007201118	-64.00226
302	0.006724488	-96.40907
302.5	0.00611521	-139.1906
303	0.006613973	-174.4323
303.5	0.006290796	150.0835
304	0.006085597	112.9775
304.5	0.006507212	81.09991
305	0.006396499	39.41325
305.5	0.006891747	-0.9570487
306	0.007244363	-33.95707
306.5	0.007119982	-74.3327
307	0.007174251	-113.7856
307.5	0.007023113	-152.7163
308	0.006687709	170.221
308.5	0.006521909	141.7686
309	0.00615178	103.9797
309.5	0.006157712	63.86633
310	0.006343872	33.13231
310.5	0.005869571	-0.3210242
311	0.005684743	-42.42937
311.5	0.005838221	-81.08616
312	0.005728709	-114.0331
312.5	0.005682921	-146.96
313	0.005676274	174.1254
313.5	0.006117076	132.4821
314	0.006589129	97.96098
314.5	0.006210588	64.56008
315	0.006473574	21.63024
315.5	0.006714074	-17.63443
316	0.006263174	-48.62037
316.5	0.005947631	-83.41492
317	0.005587806	-118.6342
317.5	0.005913915	-152.1959
318	0.006164235	175.2973
318.5	0.005768754	141.5812
319	0.005804751	101.5142
319.5	0.005876434	61.47702
320	0.005815298	28.20682
320.5	0.00599429	-6.844817
321	0.005925537	-50.07045
321.5	0.006324016	-88.02588
322	0.006467032	-120.7234
322.5	0.006403319	-159.9186
323	0.006650292	161.5786
323.5	0.00664441	123.6764
324	0.006556672	87.96167
324.5	0.006319353	57.72883
325	0.006147585	17.0471
325.5	0.00650004	-19.06598
326	0.006443635	-47.64972
326.5	0.006394304	-86.61868
327	0.006840765	-127.3929
327.5	0.006708066	-164.8047
328	0.006523855	158.6143
328.5	0.00633086	123.0237
329	0.006417647	82.00154
329.5	0.006900903	43.25733
330	0.00650883	10.17075
330.5	0.0059488	-26.21164
331	0.006384808	-67.30827
331.5	0.006423298	-102.4731
332	0.005893376	-134.2693
332.5	0.005607542	-173.8184
333	0.005563305	149.3831
333.5	0.005849821	113.7427
334	0.005807742	79.08095
334.5	0.005408337	43.48415
335	0.00586016	-1.493178
335.5	0.006459728	-38.68915
336	0.005838753	-72.32737
336.5	0.005474953	-114.4505
337	0.00549333	-153.0529
337.5	0.005412758	173.49
338	0.005274366	141.0358
338.5	0.004824171	105.541
339	0.004745239	67.27137
339.5	0.00508637	36.83088
340	0.005046255	5.285405
340.5	0.004900415	-31.05561
341	0.005179661	-73.7192
341.5	0.005191791	-109.7357
342	0.004771813	-140.8687
342.5	0.004799265	176.3268
343	0.004957609	138.5253
343.5	0.004591486	102.6252
344	0.004924862	63.43816
344.5	0.004705528	29.78491
345	0.004652992	-10.2965
345.5	0.005007606	-45.34126
346	0.004251199	-74.28571
346.5	0.004551223	-116.3718
347	0.005072838	-147.3609
347.5	0.004286707	-178.0317
348	0.004752634	143.5467
348.5	0.005348093	112.1444
349	0.005297819	73.00299
349.5	0.006040004	32.3285
350	0.005471261	-3.488163
350.5	0.005276988	-46.48497
351	0.005722535	-81.25883
351.5	0.004992334	-113.0902
352	0.004694435	-157.155
352.5	0.004952629	167.2101
353	0.004568431	131.8766
353.5	0.004499071	95.28979
354	0.00457336	63.64776
354.5	0.004348788	20.47667
355	0.004941318	-17.6021
355.5	0.004946574	-42.92245
356	0.00435624	-84.28078
356.5	0.005296959	-123.3586
357	0.005905034	-155.2166
357.5	0.005585794	163.0579
358	0.005969516	126.0439
358.5	0.005534458	80.30173
359	0.005648276	39.6628
359.5	0.005312615	16.76297
360	0.003967204	-22.65314
360.5	0.004529866	-64.34055
361	0.004514394	-89.57838
361.5	0.00377858	-123.5805
362	0.00391622	-153.5942
362.5	0.003762298	166.4692
363	0.004228442	119.6572
363.5	0.004357508	92.46366
364	0.003390764	52.0362
364.5	0.003936567	4.509012
365	0.004385062	-27.72868
365.5	0.004503408	-62.70527
366	0.004651115	-102.1849
366.5	0.004307691	-144.5268
367	0.0044839	174.565
367.5	0.00426686	146.6546
368	0.003688698	121.2045
368.5	0.003447801	84.51682
369	0.003691596	47.90942
369.5	0.003750015	22.66869
370	0.003911159	-8.290969
370.5	0.003706066	-48.85392
371	0.003734535	-88.71596
371.5	0.004293684	-133.1187
372	0.004133367	-167.2343
372.5	0.003476748	152.302
373	0.003652188	104.7647
373.5	0.003880167	77.17111
374	0.004222696	45.57412
374.5	0.00432044	2.884667
375	0.003806646	-33.54752
375.5	0.004081789	-70.15898
376	0.004275595	-99.62428
376.5	0.004175353	-130.2247
377	0.003960469	-176.0636
377.5	0.004054011	150.2332
378	0.004273618	118.5356
378.5	0.004251486	81.0031
379	0.004387808	43.02201
379.5	0.004375477	3.107321
380	0.004786971	-37.3542
380.5	0.004879772	-71.88985
381	0.003991994	-112.2747
381.5	0.003844746	-153.5638
382	0.004099225	177.524
382.5	0.003585541	142.8435
383	0.003801028	104.8405
383.5	0.003468595	68.07882
384	0.0035263	29.68483
384.5	0.00432605	-2.572207
385	0.003720262	-37.47245
385.5	0.00409109	-86.59992
386	0.004579538	-119.7374
386.5	0.003625547	-155.5319
387	0.003648488	166.3328
387.5	0.00392796	135.7746
388	0.003584347	95.97096
388.5	0.00399899	58.97368
389	0.003264058	22.19068
389.5	0.00307101	-18.07137
390	0.003595724	-47.96721
390.5	0.002724131	-78.71008
391	0.002676438	-120.8713
391.5	0.003357727	-146.0409
392	0.003209588	-176.5236
392.5	0.00341047	142.209
393	0.003607789	106.7441
393.5	0.003575787	69.36598
394	0.004072356	28.39932
394.5	0.00323885	-8.577646
395	0.002657096	-53.53458
395.5	0.002675824	-81.28206
396	0.002601671	-98.85892
396.5	0.002422119	-150.1765
397	0.002491188	175.9286
397.5	0.002531695	141.1239
398	0.002702988	99.52732
398.5	0.002946503	68.36533
399	0.003014237	26.30748
399.5	0.003509562	-11.22651
400	0.003816091	-39.42133
