Source File Name:	13,2
Signal:	FFT - Ref1 Force - Mag. & Phase

Frequency	Magnitude	Phase
[ Hz ]	[ N ]	[ ° ]
10	9.613468e-5	70.41426
10.5	9.599909e-5	53.86996
11	9.735509e-5	40.84148
11.5	9.539272e-5	24.89067
12	9.839707e-5	11.06808
12.5	9.503932e-5	-4.152707
13	9.912901e-5	-18.04768
13.5	9.593896e-5	-32.3499
14	9.949419e-5	-47.22483
14.5	9.671442e-5	-60.67223
15	9.916292e-5	-76.26028
15.5	9.741735e-5	-88.91137
16	9.886403e-5	-105.2521
16.5	9.778803e-5	-117.7468
17	9.750429e-5	-133.8692
17.5	9.799211e-5	-146.4003
18	9.604071e-5	-162.333
18.5	9.822754e-5	-175.3924
19	9.514628e-5	169.0744
19.5	9.79955e-5	155.5931
20	9.471652e-5	140.9597
20.5	9.737807e-5	126.0664
21	9.448157e-5	112.3698
21.5	9.668287e-5	96.7308
22	9.45945e-5	83.6922
22.5	9.597821e-5	67.63848
23	9.50539e-5	54.74435
23.5	9.528825e-5	38.54077
24	9.595855e-5	25.68118
24.5	9.449654e-5	9.628396
25	9.628158e-5	-3.454079
25.5	9.392082e-5	-19.06197
26	9.6453e-5	-32.76913
26.5	9.374505e-5	-47.60877
27	9.645776e-5	-62.00014
27.5	9.351569e-5	-75.89238
28	9.601401e-5	-91.0964
28.5	9.347847e-5	-104.4711
29	9.5049e-5	-120.2014
29.5	9.361699e-5	-133.1685
30	9.40413e-5	-149.2108
30.5	9.396918e-5	-161.9745
31	9.309658e-5	-178.1538
31.5	9.381281e-5	168.9414
32	9.202273e-5	153.3481
32.5	9.40059e-5	139.7386
33	9.120274e-5	124.4662
33.5	9.365802e-5	110.4341
34	9.083929e-5	95.83425
34.5	9.329628e-5	81.00826
35	9.097188e-5	67.1306
35.5	9.253913e-5	51.59605
36	9.089807e-5	38.6935
36.5	9.20575e-5	22.62254
37	9.107807e-5	9.661033
37.5	9.086791e-5	-6.430192
38	9.146375e-5	-19.33802
38.5	9.027882e-5	-35.16052
39	9.209914e-5	-48.48008
39.5	8.959648e-5	-63.63034
40	9.181018e-5	-77.43156
40.5	8.888254e-5	-92.12236
41	9.137699e-5	-106.6173
41.5	8.864221e-5	-120.6828
42	9.043659e-5	-135.8893
42.5	8.853582e-5	-149.1922
43	8.961621e-5	-165.093
43.5	8.850654e-5	-177.803
44	8.843139e-5	165.9065
44.5	8.833269e-5	153.1469
45	8.721954e-5	137.0361
45.5	8.84227e-5	123.8996
46	8.618159e-5	108.3207
46.5	8.826418e-5	94.69005
47	8.544731e-5	79.72264
47.5	8.785041e-5	65.32814
48	8.498133e-5	51.00182
48.5	8.725186e-5	35.90958
49	8.503863e-5	22.36006
49.5	8.658042e-5	6.628232
50	8.517001e-5	-6.225303
50.5	8.568225e-5	-22.3916
51	8.522616e-5	-35.04261
51.5	8.460727e-5	-51.25621
52	8.530662e-5	-64.05941
52.5	8.344384e-5	-79.88468
53	8.539877e-5	-93.13398
53.5	8.287167e-5	-108.3872
54	8.502573e-5	-122.2777
54.5	8.209404e-5	-136.6558
55	8.435026e-5	-151.4096
55.5	8.167231e-5	-165.0224
56	8.329351e-5	179.2577
56.5	8.128821e-5	166.2429
57	8.22698e-5	150.1506
57.5	8.157082e-5	137.4245
58	8.117162e-5	121.1978
58.5	8.134315e-5	108.467
59	7.982992e-5	92.40468
59.5	8.132595e-5	79.23045
60	7.895356e-5	63.65501
60.5	8.103064e-5	49.8819
61	7.832515e-5	35.21712
61.5	8.053231e-5	20.69267
62	7.782306e-5	6.722487
62.5	7.976411e-5	-8.711884
63	7.761814e-5	-21.91548
63.5	7.89007e-5	-37.93111
64	7.79516e-5	-50.54198
64.5	7.794946e-5	-66.6512
65	7.793237e-5	-79.23187
65.5	7.655966e-5	-95.41998
66	7.768429e-5	-108.3039
66.5	7.531645e-5	-123.8436
67	7.735435e-5	-137.545
67.5	7.440615e-5	-152.4918
68	7.672381e-5	-166.7303
68.5	7.404746e-5	179.1733
69	7.584567e-5	164.0197
69.5	7.352464e-5	150.7269
70	7.463898e-5	134.6865
70.5	7.32583e-5	122.1406
71	7.356818e-5	105.6553
71.5	7.311156e-5	93.24223
72	7.232271e-5	76.81922
72.5	7.320073e-5	64.14956
73	7.137216e-5	48.14614
73.5	7.313687e-5	34.97461
74	7.047148e-5	19.73022
74.5	7.275811e-5	5.568374
75	6.986962e-5	-8.651936
75.5	7.196474e-5	-23.56408
76	6.946786e-5	-37.01047
76.5	7.099314e-5	-52.90213
77	6.927663e-5	-65.49893
77.5	6.988856e-5	-81.81147
78	6.925577e-5	-94.12251
78.5	6.867988e-5	-110.6385
79	6.909534e-5	-123.0809
79.5	6.753286e-5	-139.2419
80	6.90223e-5	-152.1801
80.5	6.638002e-5	-167.7553
81	6.845232e-5	178.5972
81.5	6.555954e-5	163.9932
82	6.775526e-5	149.2751
82.5	6.50469e-5	135.7311
83	6.670901e-5	119.9966
83.5	6.48458e-5	107.1851
84	6.566796e-5	90.80852
84.5	6.478291e-5	78.48946
85	6.439161e-5	61.8805
85.5	6.464717e-5	49.57978
86	6.331136e-5	33.18258
86.5	6.450313e-5	20.41292
87	6.235579e-5	4.789804
87.5	6.405288e-5	-8.674148
88	6.154039e-5	-23.50598
88.5	6.3549e-5	-38.06528
89	6.111473e-5	-51.75293
89.5	6.274001e-5	-67.23126
90	6.059069e-5	-79.93235
90.5	6.168967e-5	-96.27299
91	6.039124e-5	-108.6529
91.5	6.040336e-5	-125.2241
92	6.031198e-5	-137.3865
92.5	5.908126e-5	-153.8453
93	6.00586e-5	-166.4205
93.5	5.794683e-5	177.599
94	5.965758e-5	164.397
94.5	5.71727e-5	149.5107
95	5.904791e-5	135.1065
95.5	5.631036e-5	121.1105
96	5.808095e-5	105.8238
96.5	5.60153e-5	92.76961
97	5.720852e-5	76.5642
97.5	5.585153e-5	64.28428
98	5.604008e-5	47.65174
98.5	5.577069e-5	35.79669
99	5.488009e-5	18.90988
99.5	5.547367e-5	6.675696
100	5.37915e-5	-9.513536
100.5	5.544348e-5	-22.40915
101	5.300442e-5	-37.74516
101.5	5.480431e-5	-51.62592
102	5.228084e-5	-65.82526
102.5	5.40789e-5	-81.03412
103	5.186972e-5	-94.04845
103.5	5.32011e-5	-110.0453
104	5.152488e-5	-122.234
104.5	5.209688e-5	-138.9787
105	5.128853e-5	-150.851
105.5	5.092017e-5	-167.5497
106	5.117751e-5	-179.5712
106.5	4.959485e-5	163.8624
107	5.083832e-5	151.231
107.5	4.868328e-5	135.577
108	5.040903e-5	122.0189
108.5	4.787052e-5	107.3699
109	4.97093e-5	92.59502
109.5	4.74752e-5	79.18443
110	4.906609e-5	63.51161
110.5	4.733111e-5	50.96237
111	4.789301e-5	34.4928
111.5	4.716491e-5	22.49625
112	4.677173e-5	5.582069
112.5	4.694699e-5	-6.200743
113	4.583803e-5	-22.79834
113.5	4.691146e-5	-35.15394
114	4.496366e-5	-51.03801
114.5	4.648153e-5	-64.15619
115	4.408862e-5	-78.80315
115.5	4.590713e-5	-93.19853
116	4.358386e-5	-106.8762
116.5	4.504938e-5	-122.5523
117	4.318736e-5	-134.8203
117.5	4.401192e-5	-151.4903
118	4.296642e-5	-163.2228
118.5	4.295645e-5	179.5567
119	4.287441e-5	168.1749
119.5	4.186555e-5	151.2594
120	4.256729e-5	139.2774
120.5	4.082053e-5	122.8622
121	4.223545e-5	109.8405
121.5	4.007765e-5	94.86283
122	4.175516e-5	80.74512
122.5	3.944383e-5	66.85955
123	4.11698e-5	51.45465
123.5	3.914661e-5	38.90288
124	4.018635e-5	22.50481
124.5	3.893775e-5	10.66984
125	3.920565e-5	-6.443225
125.5	3.897039e-5	-17.72288
126	3.822431e-5	-34.87629
126.5	3.88252e-5	-46.31865
127	3.725482e-5	-63.02188
127.5	3.850244e-5	-75.39022
128	3.638297e-5	-90.90983
128.5	3.815924e-5	-104.8639
129	3.578392e-5	-118.6027
129.5	3.754757e-5	-133.6177
130	3.545718e-5	-146.4243
130.5	3.654231e-5	-162.7614
131	3.508454e-5	-174.4874
131.5	3.537566e-5	168.1429
132	3.494089e-5	157.1579
132.5	3.46119e-5	139.5605
133	3.480877e-5	128.4565
133.5	3.354622e-5	111.5428
134	3.465779e-5	99.50323
134.5	3.269468e-5	83.62147
135	3.433059e-5	70.32827
135.5	3.200798e-5	55.86643
136	3.383759e-5	40.99985
136.5	3.187456e-5	28.07604
137	3.311741e-5	11.80992
137.5	3.157954e-5	0.1773267
138	3.222087e-5	-17.16068
138.5	3.159657e-5	-27.93208
139	3.133425e-5	-45.55918
139.5	3.151464e-5	-56.51689
140	3.036571e-5	-73.57348
140.5	3.144305e-5	-85.14249
141	2.960413e-5	-101.3739
141.5	3.113898e-5	-114.0751
142	2.888422e-5	-128.8608
142.5	3.058494e-5	-143.2841
143	2.858403e-5	-156.4882
143.5	2.9968e-5	-172.6065
144	2.830515e-5	175.8707
144.5	2.899429e-5	158.7066
145	2.832069e-5	147.8878
145.5	2.813197e-5	129.8856
146	2.827427e-5	119.5975
146.5	2.730031e-5	101.7286
147	2.818064e-5	90.58337
147.5	2.652332e-5	73.69062
148	2.793387e-5	61.54744
148.5	2.599736e-5	46.18234
149	2.758636e-5	32.16398
149.5	2.569777e-5	18.92768
150	2.69857e-5	3.15641
150.5	2.559345e-5	-8.154448
151	2.637079e-5	-25.84681
151.5	2.538266e-5	-35.93919
152	2.542233e-5	-54.40228
152.5	2.535216e-5	-64.21209
153	2.473319e-5	-82.30434
153.5	2.535136e-5	-93.07498
154	2.390618e-5	-110.0267
154.5	2.521378e-5	-121.6684
155	2.334436e-5	-137.1143
155.5	2.486159e-5	-151.1027
156	2.286017e-5	-164.4867
156.5	2.437818e-5	179.6338
157	2.281095e-5	168.045
157.5	2.37194e-5	150.5369
158	2.276096e-5	140.3212
158.5	2.278546e-5	122.053
159	2.26377e-5	112.107
159.5	2.206256e-5	93.67117
160	2.265851e-5	83.67853
160.5	2.134841e-5	66.0817
161	2.261694e-5	54.62961
161.5	2.10157e-5	38.79084
162	2.241644e-5	25.49999
162.5	2.064533e-5	11.7384
163	2.196814e-5	-3.910319
163.5	2.038957e-5	-15.07722
164	2.153818e-5	-33.06971
164.5	2.049557e-5	-42.62431
165	2.081241e-5	-61.22569
165.5	2.05907e-5	-70.23708
166	2.002244e-5	-89.09942
166.5	2.055472e-5	-99.05317
167	1.930502e-5	-116.8607
167.5	2.039976e-5	-127.7203
168	1.881051e-5	-143.8701
168.5	2.01726e-5	-157.6326
169	1.838073e-5	-170.6454
169.5	1.995421e-5	173.94
170	1.835005e-5	162.6601
170.5	1.927836e-5	144.9656
171	1.824584e-5	134.9436
171.5	1.869673e-5	116.5364
172	1.838618e-5	107.1576
172.5	1.809226e-5	87.68103
173	1.836699e-5	78.14369
173.5	1.742544e-5	60.0931
174	1.854254e-5	49.2445
174.5	1.689042e-5	33.17397
175	1.847573e-5	20.25998
175.5	1.662146e-5	5.976587
176	1.807626e-5	-8.845715
176.5	1.67282e-5	-20.79858
177	1.764362e-5	-38.06932
177.5	1.669181e-5	-47.52497
178	1.712492e-5	-66.63911
178.5	1.672151e-5	-74.88336
179	1.665075e-5	-94.11385
179.5	1.685233e-5	-103.3107
180	1.581022e-5	-121.5521
180.5	1.686619e-5	-131.9564
181	1.534131e-5	-148.9164
181.5	1.676148e-5	-161.1461
182	1.508802e-5	-175.7879
182.5	1.64369e-5	169.5662
183	1.499535e-5	158.1565
183.5	1.612353e-5	140.2605
184	1.502544e-5	130.6319
184.5	1.5564e-5	111.5502
185	1.518955e-5	103.2289
185.5	1.493494e-5	83.15299
186	1.531247e-5	74.44279
186.5	1.444996e-5	55.01891
187	1.54051e-5	46.03006
187.5	1.414843e-5	28.7294
188	1.534135e-5	16.50892
188.5	1.384371e-5	1.779999
189	1.521208e-5	-12.64778
189.5	1.379812e-5	-24.10039
190	1.487846e-5	-41.30001
190.5	1.375399e-5	-51.43946
191	1.439478e-5	-70.52826
191.5	1.390047e-5	-78.70831
192	1.386869e-5	-98.364
192.5	1.401921e-5	-106.5437
193	1.33596e-5	-126.2021
193.5	1.418501e-5	-135.6822
194	1.301351e-5	-153.1019
194.5	1.417861e-5	-164.5839
195	1.264209e-5	-179.0643
195.5	1.389086e-5	165.6805
196	1.247449e-5	153.893
196.5	1.359864e-5	136.3116
197	1.254417e-5	127.0161
197.5	1.333956e-5	107.7014
198	1.267561e-5	99.42618
198.5	1.281802e-5	79.55135
199	1.295171e-5	71.45098
199.5	1.224646e-5	51.54466
200	1.309779e-5	42.2591
200.5	1.191299e-5	24.37517
201	1.312394e-5	13.61068
201.5	1.172334e-5	-1.276954
202	1.295741e-5	-15.87196
202.5	1.146918e-5	-28.07147
203	1.268454e-5	-45.33398
203.5	1.167621e-5	-54.88672
204	1.245818e-5	-73.95275
204.5	1.185421e-5	-82.04238
205	1.181369e-5	-102.3035
205.5	1.198424e-5	-109.7523
206	1.140376e-5	-130.0152
206.5	1.205211e-5	-138.6205
207	1.096861e-5	-156.4642
207.5	1.203809e-5	-167.5982
208	1.065063e-5	176.4792
208.5	1.188904e-5	162.6342
209	1.059943e-5	150.32
209.5	1.179028e-5	132.9433
210	1.066614e-5	124.267
210.5	1.138659e-5	104.0793
211	1.069942e-5	96.88867
211.5	1.095696e-5	76.0162
212	1.094196e-5	68.29273
212.5	1.055962e-5	47.04671
213	1.118927e-5	39.25507
213.5	1.025858e-5	20.38188
214	1.134262e-5	10.24047
214.5	9.949933e-6	-6.029416
215	1.123119e-5	-19.35924
215.5	9.807692e-6	-32.48241
216	1.105537e-5	-48.62226
216.5	9.917183e-6	-58.89939
217	1.065488e-5	-77.66207
217.5	1.009468e-5	-85.58707
218	1.031474e-5	-105.9326
218.5	1.0219e-5	-112.9152
219	9.780306e-6	-133.3996
219.5	1.036608e-5	-141.6032
220	9.420277e-6	-160.737
220.5	1.031861e-5	-170.6039
221	9.140729e-6	173.1364
221.5	1.028551e-5	159.1341
222	9.013473e-6	146.2392
222.5	1.011045e-5	129.5325
223	9.182718e-6	119.9409
223.5	9.875451e-6	100.5218
224	9.253805e-6	92.78672
224.5	9.4035e-6	71.46238
225	9.358939e-6	65.23117
225.5	9.035959e-6	43.35615
226	9.417629e-6	36.45822
226.5	8.599708e-6	15.56021
227	9.743567e-6	6.312091
227.5	8.506435e-6	-10.63445
228	9.814033e-6	-22.52137
228.5	8.35838e-6	-35.32941
229	9.491061e-6	-52.06585
229.5	8.439408e-6	-62.08472
230	9.291998e-6	-81.60276
230.5	8.582826e-6	-89.32388
231	8.8359e-6	-109.2579
231.5	8.749451e-6	-116.3618
232	8.482061e-6	-138.9533
232.5	8.832943e-6	-145.137
233	8.104212e-6	-165.5346
233.5	8.934069e-6	-173.5675
234	7.793184e-6	168.3769
234.5	8.737768e-6	155.6622
235	7.520409e-6	142.5128
235.5	8.784202e-6	126.0425
236	7.674861e-6	115.9814
236.5	8.431802e-6	96.32633
237	7.710261e-6	89.48483
237.5	8.065967e-6	68.19418
238	8.047618e-6	61.60805
238.5	7.601038e-6	39.37643
239	8.138571e-6	32.93801
239.5	7.440566e-6	11.92558
240	8.360013e-6	4.174827
240.5	7.266923e-6	-13.69845
241	8.244796e-6	-25.8725
241.5	7.054736e-6	-40.54675
242	8.135966e-6	-56.05524
242.5	7.099242e-6	-65.7176
243	7.868309e-6	-85.42311
243.5	7.168462e-6	-91.76475
244	7.510075e-6	-114.1723
244.5	7.356558e-6	-117.9699
245	7.228905e-6	-141.9377
245.5	7.435222e-6	-147.5269
246	6.780444e-6	-168.7034
246.5	7.499777e-6	-176.5107
247	6.492444e-6	164.4289
247.5	7.516925e-6	153.1119
248	6.371443e-6	137.9568
248.5	7.347111e-6	123.5492
249	6.435036e-6	113.2863
249.5	7.218576e-6	93.28927
250	6.489907e-6	86.05309
250.5	6.931446e-6	64.17959
251	6.687712e-6	59.21502
251.5	6.559498e-6	36.45097
252	6.906212e-6	30.09621
252.5	6.175265e-6	8.302151
253	6.964463e-6	1.214532
253.5	6.03161e-6	-17.19481
254	7.107616e-6	-27.88247
254.5	5.992364e-6	-42.21645
255	6.89328e-6	-56.66027
255.5	5.950395e-6	-66.99155
256	6.581717e-6	-86.40439
256.5	6.0568e-6	-93.78487
257	6.379179e-6	-117.693
257.5	6.140498e-6	-119.126
258	6.056142e-6	-143.438
258.5	6.205308e-6	-148.1325
259	5.611482e-6	-170.9171
259.5	6.324074e-6	-178.0948
260	5.400634e-6	162.5859
260.5	6.364261e-6	152.7018
261	5.308817e-6	136.3209
261.5	6.195083e-6	121.8165
262	5.397108e-6	112.2596
262.5	6.059657e-6	92.5097
263	5.3818e-6	86.30938
263.5	5.840488e-6	63.46917
264	5.527867e-6	58.92924
264.5	5.586701e-6	34.71593
265	5.670876e-6	29.79868
265.5	5.251489e-6	7.245094
266	5.829112e-6	2.027264
266.5	5.011259e-6	-17.8455
267	5.898213e-6	-28.08445
267.5	4.919246e-6	-43.22345
268	5.840841e-6	-56.71461
268.5	5.036045e-6	-67.43668
269	5.724498e-6	-87.67696
269.5	4.976493e-6	-93.31357
270	5.440188e-6	-116.2858
270.5	5.098803e-6	-119.8413
271	5.235971e-6	-144.8637
271.5	5.206193e-6	-148.7244
272	4.805788e-6	-170.9386
272.5	5.397926e-6	-177.0451
273	4.636429e-6	162.028
273.5	5.395223e-6	152.4415
274	4.441696e-6	138.0882
274.5	5.397432e-6	122.3859
275	4.564335e-6	111.4567
275.5	5.243911e-6	93.59727
276	4.61451e-6	87.49334
276.5	5.021901e-6	64.42289
277	4.784161e-6	60.41467
277.5	4.806831e-6	35.7626
278	5.022024e-6	33.1226
278.5	4.558142e-6	9.337886
279	5.068521e-6	2.373207
279.5	4.369542e-6	-16.27268
280	5.214629e-6	-26.31526
280.5	4.159316e-6	-41.50416
281	5.183807e-6	-56.07827
281.5	4.274521e-6	-66.54017
282	4.931099e-6	-84.9303
282.5	4.330405e-6	-91.10217
283	4.799935e-6	-114.559
283.5	4.53756e-6	-117.6529
284	4.557623e-6	-143.7959
284.5	4.608621e-6	-144.7212
285	4.257442e-6	-169.6124
285.5	4.767101e-6	-174.5742
286	3.962805e-6	164.1303
286.5	4.850826e-6	155.4898
287	3.874305e-6	139.129
287.5	4.783869e-6	126.3274
288	3.96214e-6	115.1996
288.5	4.641146e-6	94.57397
289	4.065638e-6	89.82614
289.5	4.519929e-6	64.94176
290	4.262565e-6	64.23071
290.5	4.441335e-6	38.00999
291	4.385197e-6	35.09254
291.5	4.02201e-6	11.87552
292	4.704291e-6	4.534026
292.5	3.976967e-6	-15.48598
293	4.81925e-6	-23.98821
293.5	3.804737e-6	-37.92902
294	4.726396e-6	-52.92279
294.5	3.923229e-6	-63.47718
295	4.572177e-6	-83.99399
295.5	3.899229e-6	-88.16873
296	4.481838e-6	-112.9492
296.5	4.090598e-6	-116.2498
297	4.256452e-6	-141.4982
297.5	4.296567e-6	-143.4355
298	3.939644e-6	-167.1142
298.5	4.428751e-6	-173.538
299	3.677615e-6	165.5133
299.5	4.608741e-6	156.9121
300	3.737859e-6	141.1362
300.5	4.453555e-6	128.3281
301	3.702791e-6	116.7664
301.5	4.369179e-6	97.87985
302	3.930626e-6	90.50412
302.5	4.203339e-6	67.58345
303	3.99884e-6	65.30375
303.5	3.981591e-6	39.26415
304	4.162927e-6	36.6084
304.5	3.810832e-6	13.12376
305	4.445386e-6	6.32491
305.5	3.713026e-6	-13.20803
306	4.518177e-6	-22.27174
306.5	3.632898e-6	-38.56761
307	4.53445e-6	-52.73669
307.5	3.790549e-6	-63.17563
308	4.380064e-6	-81.40089
308.5	3.854371e-6	-86.55417
309	4.228379e-6	-110.9927
309.5	4.011003e-6	-113.4563
310	4.022879e-6	-141.0892
310.5	4.162007e-6	-142.2231
311	3.836768e-6	-167.6954
311.5	4.241154e-6	-172.0455
312	3.597426e-6	165.7098
312.5	4.333825e-6	156.3102
313	3.520488e-6	141.7737
313.5	4.345098e-6	125.8523
314	3.499134e-6	115.1289
314.5	4.258163e-6	96.75307
315	3.758211e-6	89.64523
315.5	4.155387e-6	67.63735
316	3.863939e-6	61.65918
316.5	3.928259e-6	37.88397
317	4.050698e-6	34.65821
317.5	3.719997e-6	10.83762
318	4.210195e-6	6.691854
318.5	3.675511e-6	-14.82755
319	4.232413e-6	-25.0541
319.5	3.579871e-6	-40.35758
320	4.295438e-6	-53.96742
320.5	3.652419e-6	-64.22291
321	4.18977e-6	-85.0506
321.5	3.432837e-6	-91.71427
322	3.99465e-6	-113.3169
322.5	3.783654e-6	-118.6353
323	3.799042e-6	-143.6547
323.5	3.886666e-6	-145.6743
324	3.716551e-6	-168.9659
324.5	4.111239e-6	-175.4083
325	3.449937e-6	163.7876
325.5	4.067534e-6	153.4372
326	3.409265e-6	138.2801
326.5	4.241239e-6	124.2763
327	3.520184e-6	111.9714
327.5	4.010786e-6	94.63815
328	3.537636e-6	87.09052
328.5	3.894496e-6	63.8935
329	3.732134e-6	60.40934
329.5	3.902554e-6	34.53408
330	3.885591e-6	30.98158
330.5	3.653644e-6	7.928194
331	3.960101e-6	3.769956
331.5	3.577058e-6	-19.76534
332	3.999314e-6	-26.84115
332.5	3.295168e-6	-43.4706
333	4.045246e-6	-56.2175
333.5	3.514864e-6	-69.78537
334	4.03726e-6	-87.66314
334.5	3.436115e-6	-94.3278
335	3.936219e-6	-116.7531
335.5	3.582204e-6	-122.5739
336	3.748925e-6	-145.9049
336.5	3.739884e-6	-150.513
337	3.541388e-6	-173.2926
337.5	3.874733e-6	-177.9143
338	3.371318e-6	158.1081
338.5	3.850131e-6	151.9585
339	3.233527e-6	131.7636
339.5	3.826442e-6	121.2411
340	3.295606e-6	107.6821
340.5	3.916451e-6	88.13467
341	3.286108e-6	80.05932
341.5	3.741957e-6	60.58453
342	3.328474e-6	54.4734
342.5	3.592186e-6	29.46848
343	3.613005e-6	26.90387
343.5	3.55643e-6	2.870851
344	3.773278e-6	-1.908978
344.5	3.391946e-6	-24.43774
345	3.907064e-6	-31.37517
345.5	3.305584e-6	-49.43571
346	3.914791e-6	-61.06207
346.5	3.170914e-6	-74.48524
347	3.72592e-6	-92.03451
347.5	3.233776e-6	-102.5167
348	3.72313e-6	-122.4166
348.5	3.295979e-6	-126.3227
349	3.505381e-6	-152.06
349.5	3.352159e-6	-155.3489
350	3.293292e-6	179.2659
