Source File Name:	14,4
Signal:	FFT - Vib Velocity - Mag. & Phase

Frequency	Magnitude	Phase
[ Hz ]	[ m/s ]	[ ° ]
10	17.10813	10.05346
10.5	17.2859	-4.083454
11	17.81567	-21.11708
11.5	19.24652	-39.4179
12	19.6301	-52.60739
12.5	20.45806	-71.27991
13	19.16993	-92.48272
13.5	21.82523	-108.1615
14	22.03124	-131.5043
14.5	22.06267	-148.6571
15	23.51785	-172.2449
15.5	23.92809	171.4559
16	24.88387	151.67
16.5	26.35957	129.7561
17	28.552	108.0722
17.5	30.41212	85.08273
18	33.5578	59.352
18.5	39.01965	26.14706
19	38.04063	1.281975
19.5	38.20029	-33.8042
20	37.09557	-65.81728
20.5	33.95485	-98.5724
21	28.69333	-131.4091
21.5	24.32156	-151.3768
22	19.55103	172.8785
22.5	16.16174	155.5017
23	16.17194	127.2006
23.5	12.89373	114.577
24	11.54997	95.52798
24.5	10.66388	75.87747
25	9.570338	60.2051
25.5	9.296542	40.42681
26	9.100406	20.60033
26.5	8.586439	1.913482
27	8.058693	-18.60798
27.5	8.064325	-37.98383
28	7.613376	-56.27377
28.5	7.519779	-77.50039
29	7.330607	-95.89169
29.5	7.209232	-114.7008
30	7.058555	-132.8129
30.5	6.956977	-151.8881
31	7.141163	-167.9535
31.5	6.383925	173.192
32	6.178562	155.9198
32.5	6.011964	142.2517
33	5.931816	124.8895
33.5	5.659544	108.7695
34	5.578658	93.63667
34.5	5.226489	78.79265
35	5.216921	62.51127
35.5	5.093035	49.09836
36	4.732624	35.25303
36.5	4.695644	21.81974
37	4.696856	7.348833
37.5	4.589948	-3.550457
38	4.694617	-18.08278
38.5	4.779892	-32.6226
39	4.766091	-46.64142
39.5	5.001729	-61.20517
40	5.342927	-75.84142
40.5	5.435664	-91.59729
41	5.679413	-107.6451
41.5	5.937874	-124.3443
42	5.964596	-140.5088
42.5	6.082358	-157.3342
43	6.132074	-175.4817
43.5	6.164498	170.7727
44	6.261591	152.7803
44.5	6.118931	135.7073
45	6.168764	122.0433
45.5	6.230285	105.6478
46	6.119514	89.53191
46.5	6.239986	75.0969
47	6.19857	58.71355
47.5	6.241105	40.74269
48	6.016016	26.1431
48.5	6.010563	11.68134
49	5.975323	-5.795565
49.5	6.019013	-20.29305
50	5.863832	-37.12729
50.5	5.747104	-53.9181
51	5.69085	-67.95833
51.5	5.696249	-83.4454
52	5.517811	-99.93374
52.5	5.763038	-112.6562
53	5.79426	-129.3439
53.5	5.592156	-147.6808
54	5.686773	-161.8285
54.5	5.644536	-178.239
55	5.458983	165.8559
55.5	5.348843	150.8801
56	5.182753	136.3837
56.5	5.436131	122.5474
57	5.2458	105.5086
57.5	5.250613	90.93353
58	5.169693	75.94733
58.5	5.201929	59.0479
59	5.064049	44.56039
59.5	5.048054	29.21933
60	4.938464	12.79361
60.5	4.864826	-2.404057
61	4.776551	-16.87072
61.5	4.760096	-32.73038
62	4.564742	-46.85277
62.5	4.593266	-62.32793
63	4.706241	-78.24778
63.5	4.596733	-95.69967
64	4.47387	-111.0243
64.5	4.266388	-126.0998
65	4.276145	-141.7732
65.5	4.28503	-155.4995
66	4.15408	-171.9976
66.5	4.125943	171.2845
67	3.953382	158.5751
67.5	3.985373	143.3707
68	3.950414	128.8111
68.5	3.92638	111.3874
69	3.783499	98.4184
69.5	3.758176	81.51826
70	3.851611	65.66283
70.5	3.67772	49.34214
71	3.512064	33.43215
71.5	3.310745	16.67641
72	3.399139	6.22574
72.5	3.15439	-12.75804
73	3.265886	-27.85263
73.5	2.966161	-43.33604
74	2.976868	-58.81748
74.5	2.873112	-74.093
75	3.028945	-91.38
75.5	2.872472	-108.7081
76	2.6228	-128.3951
76.5	2.461733	-140.6848
77	2.578601	-154.1492
77.5	2.326931	-176.8
78	2.241187	170.2068
78.5	2.141625	155.5439
79	2.191481	139.8092
79.5	2.043991	118.4038
80	1.936996	102.4002
80.5	1.850331	83.39632
81	1.732898	62.71285
81.5	1.61401	46.21347
82	1.629185	24.34862
82.5	1.301124	-0.702453
83	1.343551	-15.18396
83.5	1.298204	-43.28214
84	1.310845	-61.72662
84.5	1.283118	-91.56641
85	1.407587	-111.9518
85.5	1.468528	-136.1029
86	1.698849	-162.0316
86.5	1.852914	178.5847
87	2.294215	153.6644
87.5	2.422858	128.1408
88	2.819711	110.2348
88.5	2.987895	89.1834
89	3.427327	69.82824
89.5	3.936444	49.62257
90	4.271416	31.68108
90.5	4.817451	12.31867
91	5.317101	-7.885424
91.5	5.926527	-25.34008
92	6.642277	-45.48678
92.5	7.238083	-65.01771
93	7.92567	-83.82729
93.5	8.594759	-103.6
94	9.523426	-122.4191
94.5	10.31039	-143.1895
95	10.92854	-163.0951
95.5	11.53973	176.6798
96	12.25889	157.2285
96.5	12.74392	137.0545
97	13.17487	116.7293
97.5	13.29773	97.14126
98	13.58482	78.27156
98.5	13.61866	59.42516
99	13.70806	41.03541
99.5	13.66312	23.40056
100	13.62879	5.898439
100.5	13.68358	-10.63083
101	13.88214	-26.08612
101.5	14.25741	-42.04762
102	14.87201	-58.82465
102.5	15.3443	-75.52718
103	16.00327	-91.66919
103.5	16.8751	-108.3958
104	17.9664	-126.144
104.5	18.94342	-144.9871
105	19.74019	-163.4669
105.5	20.80883	177.7273
106	21.72273	157.968
106.5	22.41601	137.6945
107	23.09304	117.5135
107.5	23.40583	96.52161
108	23.50006	75.72593
108.5	23.22274	54.96355
109	23.08268	33.91733
109.5	22.31135	12.67628
110	21.25062	-8.112201
110.5	20.0415	-28.31106
111	18.89061	-48.28984
111.5	17.34415	-67.50082
112	15.94559	-85.9695
112.5	14.61978	-102.9346
113	13.5054	-119.7832
113.5	12.53084	-135.9995
114	11.71002	-152.1787
114.5	10.92684	-167.0755
115	10.28046	176.7133
115.5	9.617404	161.293
116	8.98048	147.1385
116.5	8.479418	131.7175
117	7.946373	117.6955
117.5	7.59763	103.8587
118	7.146552	89.52515
118.5	6.795374	75.5864
119	6.445759	62.60445
119.5	6.165668	49.7462
120	6.03941	36.89217
120.5	5.892236	23.03244
121	5.789195	9.597151
121.5	5.58025	-3.927303
122	5.512967	-17.26801
122.5	5.34422	-31.28457
123	5.25698	-43.56305
123.5	5.274111	-57.43911
124	5.094644	-70.66342
124.5	5.214452	-82.90385
125	5.227496	-97.56628
125.5	5.167644	-112.175
126	5.279052	-125.4785
126.5	5.239681	-139.784
127	5.251299	-154.3929
127.5	5.18872	-169.1552
128	5.280575	177.5602
128.5	5.131306	161.5724
129	5.058903	149.0177
129.5	5.197128	135.5209
130	5.20154	120.8178
130.5	5.288535	106.6719
131	5.386643	91.05982
131.5	5.333574	76.26788
132	5.24479	60.09377
132.5	5.249653	46.04579
133	5.155359	31.69003
133.5	5.134942	17.42418
134	5.103069	2.922533
134.5	5.125109	-13.14966
135	4.991808	-25.55952
135.5	5.094491	-41.67361
136	4.920154	-56.87037
136.5	4.827588	-70.8136
137	4.788937	-84.49467
137.5	4.702478	-99.39704
138	4.649273	-111.2294
138.5	4.611661	-125.5245
139	4.578956	-138.823
139.5	4.605808	-150.752
140	4.757558	-162.7153
140.5	4.706355	-177.5151
141	4.878191	170.2529
141.5	5.146904	156.6122
142	5.058294	142.7585
142.5	5.389089	130.5016
143	5.550644	115.2212
143.5	5.733809	101.3729
144	6.039907	87.47454
144.5	6.379695	71.35728
145	6.521806	56.54067
145.5	6.74299	40.86262
146	7.176085	25.28897
146.5	7.34297	8.128871
147	7.473649	-7.191525
147.5	7.687619	-23.78343
148	7.969106	-39.80094
148.5	8.141821	-56.64985
149	8.199949	-73.15961
149.5	8.39966	-89.07638
150	8.553041	-106.3438
150.5	8.570985	-122.6582
151	8.691835	-138.8764
151.5	8.883138	-154.6477
152	8.914538	-171.6655
152.5	9.010646	172.1079
153	9.292966	156.1665
153.5	9.475758	138.7164
154	9.433879	121.195
154.5	9.459579	104.1115
155	9.377291	87.5648
155.5	9.334105	71.22922
156	9.39772	55.11732
156.5	9.41672	38.76693
157	9.535243	21.78023
157.5	9.479486	4.309684
158	9.516636	-11.92326
158.5	9.469175	-29.21699
159	9.441217	-46.8012
159.5	9.265741	-63.71089
160	9.172532	-80.25324
160.5	9.071273	-95.93646
161	9.1689	-113.3616
161.5	9.100109	-130.104
162	9.071022	-147.3321
162.5	9.077913	-164.6857
163	8.929852	177.253
163.5	8.685433	160.0206
164	8.43661	142.3873
164.5	8.200414	125.6238
165	7.959318	109.6519
165.5	7.752441	93.07568
166	7.628745	76.00069
166.5	7.40192	58.90904
167	7.129949	43.12295
167.5	6.944083	26.06574
168	6.709346	10.04977
168.5	6.48244	-6.167046
169	6.279872	-22.72337
169.5	6.070608	-37.11096
170	6.025044	-53.56995
170.5	5.790437	-69.79499
171	5.710598	-86.19663
171.5	5.539627	-101.4794
172	5.270371	-117.1784
172.5	5.187855	-132.4491
173	5.113065	-147.5859
173.5	5.081274	-162.5049
174	4.983134	-178.7844
174.5	4.920079	166.1215
175	4.869557	150.906
175.5	4.961702	135.1877
176	4.920254	117.5705
176.5	4.809992	101.7061
177	4.652917	87.29276
177.5	4.785016	71.53996
178	4.932611	56.15237
178.5	4.885614	38.23819
179	4.951894	21.74677
179.5	4.964135	3.717043
180	4.990271	-13.2085
180.5	4.959224	-30.42638
181	4.954188	-49.01358
181.5	4.92485	-65.57338
182	4.891999	-83.39453
182.5	5.029868	-100.0366
183	5.104188	-118.72
183.5	5.090569	-137.79
184	5.078215	-156.7681
184.5	5.04776	-175.729
185	4.912664	167.3931
185.5	5.016081	148.552
186	4.917792	128.4913
186.5	4.837528	110.1022
187	4.696546	92.85353
187.5	4.74326	72.62191
188	4.524889	55.17303
188.5	4.516385	36.29875
189	4.422291	18.31549
189.5	4.288102	-0.8455796
190	4.148972	-16.60596
190.5	4.14801	-33.62031
191	4.37337	-51.47514
191.5	4.301837	-70.8018
192	4.223207	-89.91127
192.5	4.16656	-109.2885
193	3.986908	-125.7505
193.5	3.976568	-142.0455
194	4.035428	-159.7968
194.5	4.019528	-178.75
195	3.848258	164.8798
195.5	3.901053	148.3741
196	3.96075	132.2237
196.5	3.961661	114.5325
197	3.956091	98.75581
197.5	4.171054	80.97511
198	4.125179	63.9244
198.5	4.200887	46.13611
199	4.248503	28.28223
199.5	4.152788	10.30214
200	4.193895	-4.417363
200.5	4.216927	-22.97509
201	4.286716	-37.89117
201.5	4.330076	-55.48298
202	4.510185	-71.76105
202.5	4.652357	-91.1936
203	4.555429	-108.8693
203.5	4.502594	-124.7518
204	4.629108	-141.8961
204.5	4.622604	-158.4108
205	4.758562	-174.2109
205.5	4.871071	168.5097
206	4.919716	150.1669
206.5	4.887031	133.4286
207	4.95013	117.1374
207.5	5.092755	98.99427
208	4.97756	81.51717
208.5	4.910645	64.7031
209	4.956284	49.22771
209.5	5.083566	32.00282
210	5.109459	15.59331
210.5	5.084104	-3.242656
211	5.120594	-19.64661
211.5	5.139642	-36.39055
212	5.164439	-54.53587
212.5	4.964881	-72.41719
213	4.945621	-87.08058
213.5	4.914014	-103.8218
214	5.091519	-120.4931
214.5	5.076534	-138.0889
215	4.971101	-156.688
215.5	4.822071	-174.7765
216	4.620373	169.7076
216.5	4.650153	156.0574
217	4.66666	136.8075
217.5	4.572736	119.4484
218	4.396902	103.5687
218.5	4.338312	86.56038
219	4.236204	71.66508
219.5	4.261195	54.04027
220	4.109797	35.49245
220.5	3.862947	18.03863
221	3.59965	5.790053
221.5	3.686329	-9.475808
222	3.692793	-27.86731
222.5	3.563934	-47.95482
223	3.168779	-63.04646
223.5	3.005498	-76.84843
224	2.99896	-92.24196
224.5	2.864085	-109.9894
225	2.721627	-125.2243
225.5	2.508162	-138.9884
226	2.506485	-156.298
226.5	2.345495	-170.7377
227	2.152937	171.1903
227.5	1.968909	157.2598
228	1.786403	147.3111
228.5	1.752004	131.3426
229	1.480327	116.1066
229.5	1.45178	108.1952
230	1.308609	97.81429
230.5	1.222498	82.42542
231	1.102003	70.56707
231.5	1.030037	69.00414
232	0.9518919	57.64165
232.5	0.9791431	51.55504
233	1.022175	43.35691
233.5	0.9552032	36.41667
234	1.014691	25.46991
234.5	1.151504	19.63266
235	1.268366	10.37213
235.5	1.373945	-7.048673
236	1.358885	-21.05999
236.5	1.447121	-34.49434
237	1.349567	-38.6712
237.5	1.635555	-51.86348
238	1.799412	-66.89104
238.5	1.813005	-82.45802
239	1.961242	-95.5612
239.5	1.988064	-111.2051
240	2.159281	-122.4835
240.5	2.2656	-140.3904
241	2.284412	-156.9858
241.5	2.252764	-168.753
242	2.416246	-178.7357
242.5	2.607568	166.088
243	2.765167	148.1203
243.5	2.795697	135.8848
244	2.94001	120.079
244.5	3.073735	106.3966
245	3.214199	89.89713
245.5	3.237561	75.34792
246	3.365106	61.13474
246.5	3.604933	44.94193
247	3.581394	30.88641
247.5	3.765438	15.00797
248	3.942818	-1.375844
248.5	3.982178	-16.73332
249	4.105586	-31.94769
249.5	4.165466	-47.40965
250	4.35913	-63.15295
250.5	4.486608	-78.35997
251	4.672655	-95.61506
251.5	4.623424	-111.7077
252	4.637519	-127.1049
252.5	4.692509	-141.0677
253	4.919619	-156.6814
253.5	5.031816	-172.0587
254	5.007276	171.7911
254.5	5.190622	157.1293
255	5.324219	139.5329
255.5	5.349263	124.7027
256	5.294789	108.5286
256.5	5.411594	93.217
257	5.449708	77.69356
257.5	5.440042	62.38265
258	5.55815	47.6782
258.5	5.650866	32.1104
259	5.678328	16.54467
259.5	5.79749	0.7043085
260	5.848943	-14.93797
260.5	5.848509	-29.73372
261	5.870639	-46.3192
261.5	5.90757	-61.02422
262	5.946348	-76.30198
262.5	5.982841	-90.71097
263	6.109378	-106.8555
263.5	6.134473	-122.3182
264	6.085639	-138.1123
264.5	6.257472	-152.4966
265	6.170847	-168.2914
265.5	6.318924	177.1913
266	6.321956	161.1098
266.5	6.34703	145.5554
267	6.314563	132.3032
267.5	6.54865	116.756
268	6.533803	101.0857
268.5	6.631069	85.30361
269	6.606828	70.9103
269.5	6.684021	55.55235
270	6.758012	40.05933
270.5	6.810031	24.38263
271	6.769578	9.675127
271.5	6.880953	-5.793855
272	6.947326	-20.92906
272.5	6.954472	-36.11247
273	7.040028	-51.57811
273.5	7.191526	-67.2182
274	7.086829	-82.42445
274.5	7.163593	-97.71899
275	7.197477	-112.5097
275.5	7.306742	-127.7848
276	7.367662	-142.5697
276.5	7.487222	-159.2672
277	7.427269	-173.9462
277.5	7.487167	170.5414
278	7.514593	155.0275
278.5	7.533129	139.666
279	7.541665	124.536
279.5	7.451307	109.683
280	7.697868	95.27045
280.5	7.724339	78.94265
281	7.786385	64.10677
281.5	7.801558	48.25255
282	7.827394	32.69791
282.5	7.839512	18.38111
283	7.887249	2.279011
283.5	7.981971	-12.39459
284	7.969046	-28.21385
284.5	8.030499	-43.25457
285	8.101649	-59.45623
285.5	8.035469	-74.9382
286	7.977085	-89.35563
286.5	8.030513	-104.9542
287	8.142088	-119.7664
287.5	8.207333	-135.4959
288	8.127355	-151.2048
288.5	8.179133	-165.7171
289	8.265706	179.0041
289.5	8.338415	163.2714
290	8.385607	147.4572
290.5	8.303385	131.8795
291	8.242011	116.6399
291.5	8.217411	101.9112
292	8.340714	86.32135
292.5	8.23757	71.41944
293	8.216884	56.11135
293.5	8.274519	40.97438
294	8.298458	25.79735
294.5	8.328893	10.33555
295	8.203033	-4.904779
295.5	8.352784	-19.89013
296	8.286297	-35.51848
296.5	8.306785	-50.40618
297	8.415375	-65.97543
297.5	8.300496	-81.3556
298	8.230474	-96.76785
298.5	8.173615	-111.5248
299	8.325197	-125.3117
299.5	8.292607	-141.1722
300	8.377748	-156.5367
300.5	8.373418	-172.012
301	8.316328	172.813
301.5	8.336156	158.1361
302	8.335229	142.0107
302.5	8.227305	127.9433
303	8.274602	112.3331
303.5	8.35091	98.1218
304	8.3966	82.76051
304.5	8.415835	66.98633
305	8.33266	51.3414
305.5	8.310837	36.97975
306	8.376119	22.51965
306.5	8.451339	6.759018
307	8.403757	-9.009878
307.5	8.349833	-24.01362
308	8.345869	-38.31995
308.5	8.457997	-53.95056
309	8.403051	-69.88409
309.5	8.259557	-84.56541
310	8.262066	-99.25345
310.5	8.377921	-113.4119
311	8.490281	-129.0656
311.5	8.467511	-144.5615
312	8.512259	-160.7294
312.5	8.407666	-175.4629
313	8.328542	170.4056
313.5	8.518202	154.9083
314	8.450282	139.5408
314.5	8.482471	124.4542
315	8.400503	109.2471
315.5	8.52298	94.40072
316	8.4268	78.86629
316.5	8.370744	63.62268
317	8.418112	48.85542
317.5	8.391391	33.74729
318	8.440287	19.24633
318.5	8.484471	2.749478
319	8.454104	-12.04483
319.5	8.374115	-27.59602
320	8.332946	-42.00829
320.5	8.450887	-56.70934
321	8.465571	-72.9412
321.5	8.37044	-87.75558
322	8.379266	-103.0285
322.5	8.37473	-117.9736
323	8.275372	-133.1265
323.5	8.226647	-148.156
324	8.30025	-162.2507
324.5	8.351471	-178.0373
325	8.256514	167.3549
325.5	8.355689	151.7021
326	8.296034	136.7625
326.5	8.266296	121.5089
327	8.244927	107.1026
327.5	8.320389	91.78695
328	8.327763	76.56612
328.5	8.168411	61.16766
329	8.352152	47.10555
329.5	8.21104	31.3667
330	8.240085	16.89646
330.5	8.293515	1.560675
331	8.333716	-13.84749
331.5	8.201079	-28.69054
332	8.227624	-43.68611
332.5	8.304267	-59.03835
333	8.249666	-74.24834
333.5	8.219871	-89.08395
334	8.309928	-104.5263
334.5	8.153752	-119.7799
335	8.184278	-134.3803
335.5	8.218076	-149.6796
336	8.207065	-164.3683
336.5	8.162481	-179.5149
337	8.143404	165.3393
337.5	8.170669	150.5845
338	8.229352	135.8651
338.5	8.10609	120.2236
339	8.168221	105.0825
339.5	8.019127	90.63832
340	8.090521	75.68586
340.5	8.090608	61.21381
341	8.112156	45.63394
341.5	8.106102	30.99937
342	8.060131	15.49868
342.5	8.142947	1.509861
343	8.138187	-13.76525
343.5	8.190763	-28.95329
344	8.172958	-44.55608
344.5	8.175854	-58.70959
345	8.227356	-73.66604
345.5	8.253454	-89.17931
346	8.247418	-103.997
346.5	8.333203	-119.4342
347	8.242425	-134.333
347.5	8.312245	-149.2367
348	8.351425	-164.3589
348.5	8.360954	-179.603
349	8.411397	164.6185
349.5	8.361115	150.1203
350	8.369982	134.5768
