Source File Name:	16,1
Signal:	FFT - Ref1 Force - Mag. & Phase

Frequency	Magnitude	Phase
[ Hz ]	[ N ]	[ ° ]
10	0.0001072643	69.43909
10.5	0.0001072161	54.95723
11	0.0001085536	40.00516
11.5	0.0001077981	25.16892
12	0.0001090179	10.82682
12.5	0.0001090411	-3.7609
13	0.0001092531	-17.85645
13.5	0.0001095232	-32.09113
14	0.0001094128	-46.43567
14.5	0.0001095045	-60.83163
15	0.0001097441	-75.16293
15.5	0.0001098968	-89.51736
16	0.0001098061	-103.6322
16.5	0.0001101426	-117.7414
17	0.0001099675	-132.223
17.5	0.0001092788	-146.5365
18	0.000109192	-160.9912
18.5	0.0001088299	-175.5072
19	0.0001087517	170.0431
19.5	0.0001085735	155.6197
20	0.0001085	141.0899
20.5	0.0001083296	126.8291
21	0.0001081927	112.1809
21.5	0.0001076002	97.72657
22	0.0001077199	83.06763
22.5	0.0001077472	68.5352
23	0.0001079166	54.02483
23.5	0.0001077688	39.52942
24	0.0001078024	25.07193
24.5	0.0001075813	10.63362
25	0.0001076866	-3.883159
25.5	0.0001075947	-18.37877
26	0.0001076882	-32.84642
26.5	0.0001075421	-47.22431
27	0.0001077723	-61.64101
27.5	0.0001074432	-75.98156
28	0.0001075032	-90.37487
28.5	0.0001072023	-104.8526
29	0.0001069672	-119.2739
29.5	0.0001068915	-133.7223
30	0.0001066308	-148.0708
30.5	0.0001067446	-162.5448
31	0.0001061562	-177.1195
31.5	0.0001058588	168.5016
32	0.0001056078	154.0623
32.5	0.0001053804	139.6493
33	0.0001052535	124.9506
33.5	0.0001048223	110.4764
34	0.0001048152	96.04005
34.5	0.0001045389	81.62121
35	0.0001045752	67.09943
35.5	0.0001044484	52.51433
36	0.0001042041	38.05096
36.5	0.0001045386	23.61205
37	0.000104381	9.100664
37.5	0.0001042441	-5.333535
38	0.0001039427	-19.71388
38.5	0.0001039884	-34.07905
39	0.0001040681	-48.61705
39.5	0.0001038558	-63.05377
40	0.0001037283	-77.46988
40.5	0.0001033843	-91.78838
41	0.0001031952	-106.217
41.5	0.0001031203	-120.6953
42	0.0001027046	-135.2446
42.5	0.0001025368	-149.6328
43	0.0001021526	-164.1471
43.5	0.0001020411	-178.6477
44	0.0001015931	166.9572
44.5	0.0001013387	152.4404
45	0.0001009992	137.9959
45.5	0.0001008278	123.485
46	0.0001006487	108.9266
46.5	0.0001002505	94.42159
47	0.0001000159	80.03712
47.5	9.993833e-5	65.58155
48	9.960491e-5	51.05701
48.5	9.96103e-5	36.62859
49	9.928401e-5	22.08524
49.5	9.918952e-5	7.709802
50	9.882889e-5	-6.711712
50.5	9.875989e-5	-21.20351
51	9.868201e-5	-35.58156
51.5	9.858679e-5	-50.02271
52	9.837704e-5	-64.46066
52.5	9.808123e-5	-78.8473
53	9.787929e-5	-93.25079
53.5	9.757939e-5	-107.6236
54	9.751964e-5	-122.1088
54.5	9.711657e-5	-136.5358
55	9.684282e-5	-150.9971
55.5	9.64532e-5	-165.4444
56	9.617437e-5	-179.8361
56.5	9.57353e-5	165.7403
57	9.56829e-5	151.2994
57.5	9.527569e-5	136.6942
58	9.503787e-5	122.2294
58.5	9.461984e-5	107.7385
59	9.440217e-5	93.29845
59.5	9.419938e-5	78.81464
60	9.403653e-5	64.29703
60.5	9.370624e-5	49.83003
61	9.341412e-5	35.29968
61.5	9.32832e-5	20.93729
62	9.301133e-5	6.423967
62.5	9.288763e-5	-7.974462
63	9.267731e-5	-22.46834
63.5	9.24395e-5	-36.84568
64	9.229239e-5	-51.39135
64.5	9.170877e-5	-65.54406
65	9.158684e-5	-80.06338
65.5	9.112003e-5	-94.49789
66	9.115168e-5	-108.8902
66.5	9.067416e-5	-123.326
67	9.048093e-5	-137.7131
67.5	9.016147e-5	-152.1393
68	8.968318e-5	-166.6157
68.5	8.931549e-5	178.9192
69	8.910318e-5	164.5619
69.5	8.890669e-5	150.0266
70	8.852028e-5	135.4773
70.5	8.816196e-5	121.066
71	8.789081e-5	106.6399
71.5	8.748732e-5	92.28015
72	8.735106e-5	77.69843
72.5	8.695178e-5	63.21483
73	8.679969e-5	48.77416
73.5	8.651332e-5	34.35038
74	8.62476e-5	19.89518
74.5	8.602346e-5	5.509879
75	8.569195e-5	-8.920825
75.5	8.552535e-5	-23.35808
76	8.523044e-5	-37.88473
76.5	8.482754e-5	-52.24289
77	8.463588e-5	-66.63036
77.5	8.435817e-5	-80.95937
78	8.387836e-5	-95.3538
78.5	8.355748e-5	-109.6995
79	8.33279e-5	-124.2016
79.5	8.290829e-5	-138.5504
80	8.255853e-5	-153.0165
80.5	8.209051e-5	-167.4215
81	8.176121e-5	178.2712
81.5	8.160967e-5	163.7166
82	8.111977e-5	149.2458
82.5	8.071967e-5	134.7288
83	8.031117e-5	120.3752
83.5	8.014331e-5	105.9567
84	7.988114e-5	91.46975
84.5	7.963775e-5	76.9326
85	7.915858e-5	62.49558
85.5	7.89498e-5	48.09134
86	7.858821e-5	33.72008
86.5	7.834189e-5	19.14698
87	7.807023e-5	4.867778
87.5	7.776154e-5	-9.724685
88	7.751218e-5	-24.02747
88.5	7.71145e-5	-38.43006
89	7.677173e-5	-52.63994
89.5	7.657415e-5	-67.17876
90	7.627666e-5	-81.55145
90.5	7.608269e-5	-96.05562
91	7.552099e-5	-110.4078
91.5	7.528935e-5	-124.7118
92	7.48665e-5	-139.0829
92.5	7.443602e-5	-153.5165
93	7.41594e-5	-167.9791
93.5	7.373615e-5	177.6599
94	7.352961e-5	163.2774
94.5	7.298499e-5	148.9218
95	7.277656e-5	134.4443
95.5	7.223889e-5	119.9665
96	7.194751e-5	105.6142
96.5	7.168402e-5	90.97581
97	7.136352e-5	76.6135
97.5	7.107804e-5	62.10867
98	7.065239e-5	47.89175
98.5	7.031139e-5	33.44792
99	7.00864e-5	18.95758
99.5	6.982423e-5	4.699639
100	6.962692e-5	-9.782395
100.5	6.924287e-5	-24.03388
101	6.889732e-5	-38.49067
101.5	6.848468e-5	-52.84927
102	6.827935e-5	-67.22449
102.5	6.787362e-5	-81.62341
103	6.763011e-5	-95.96523
103.5	6.707464e-5	-110.4174
104	6.683473e-5	-124.7131
104.5	6.638793e-5	-139.1213
105	6.617499e-5	-153.5424
105.5	6.586546e-5	-167.9605
106	6.546228e-5	177.5872
106.5	6.501328e-5	163.2132
107	6.445895e-5	148.8946
107.5	6.430225e-5	134.4196
108	6.396203e-5	120.0404
108.5	6.364683e-5	105.5599
109	6.318079e-5	91.22462
109.5	6.28173e-5	76.91199
110	6.268194e-5	62.43979
110.5	6.223634e-5	48.01312
111	6.19371e-5	33.5886
111.5	6.167722e-5	19.29979
112	6.137315e-5	4.858873
112.5	6.11674e-5	-9.467787
113	6.077663e-5	-23.83548
113.5	6.041097e-5	-38.20655
114	6.01021e-5	-52.32347
114.5	5.989152e-5	-66.83189
115	5.959443e-5	-81.22269
115.5	5.920793e-5	-95.48946
116	5.889922e-5	-109.9339
116.5	5.835566e-5	-124.1801
117	5.820212e-5	-138.523
117.5	5.774478e-5	-152.8948
118	5.746708e-5	-167.3331
118.5	5.70562e-5	178.3332
119	5.660289e-5	163.9843
119.5	5.629252e-5	149.6359
120	5.594713e-5	135.2922
120.5	5.569097e-5	120.9167
121	5.535207e-5	106.5194
121.5	5.482835e-5	92.16439
122	5.451407e-5	77.79809
122.5	5.425155e-5	63.38749
123	5.395452e-5	49.01177
123.5	5.376482e-5	34.70823
124	5.334026e-5	20.36286
124.5	5.306062e-5	6.037934
125	5.268582e-5	-8.211965
125.5	5.249118e-5	-22.64608
126	5.220119e-5	-36.96291
126.5	5.191993e-5	-51.2509
127	5.158246e-5	-65.61971
127.5	5.120855e-5	-79.89114
128	5.094594e-5	-94.00294
128.5	5.056283e-5	-108.3694
129	5.014962e-5	-122.8299
129.5	4.988275e-5	-137.229
130	4.954002e-5	-151.5114
130.5	4.912458e-5	-165.7519
131	4.878043e-5	179.886
131.5	4.843296e-5	165.6949
132	4.814625e-5	151.1069
132.5	4.784599e-5	136.7944
133	4.761239e-5	122.4811
133.5	4.715117e-5	108.2388
134	4.685519e-5	93.91422
134.5	4.650195e-5	79.56738
135	4.631703e-5	65.33959
135.5	4.597226e-5	50.85637
136	4.571344e-5	36.52904
136.5	4.540504e-5	22.31842
137	4.519279e-5	8.086482
137.5	4.488006e-5	-6.326742
138	4.466826e-5	-20.73135
138.5	4.418467e-5	-35.11491
139	4.399972e-5	-49.24046
139.5	4.378121e-5	-63.48942
140	4.352643e-5	-77.688
140.5	4.316482e-5	-92.07303
141	4.279069e-5	-106.159
141.5	4.237829e-5	-120.4799
142	4.221806e-5	-134.798
142.5	4.194855e-5	-149.1499
143	4.166328e-5	-163.4555
143.5	4.115854e-5	-177.6769
144	4.093389e-5	167.9937
144.5	4.057681e-5	153.7447
145	4.042085e-5	139.6504
145.5	3.998698e-5	125.1221
146	3.969184e-5	111.0312
146.5	3.954026e-5	96.64801
147	3.92469e-5	82.33727
147.5	3.903135e-5	68.09253
148	3.877333e-5	53.92869
148.5	3.840178e-5	39.59181
149	3.828566e-5	25.27827
149.5	3.803311e-5	10.89429
150	3.76621e-5	-3.166078
150.5	3.745367e-5	-17.41722
151	3.724877e-5	-31.55964
151.5	3.689209e-5	-46.01801
152	3.663975e-5	-60.09955
152.5	3.650777e-5	-74.33181
153	3.606503e-5	-88.53763
153.5	3.596771e-5	-102.6588
154	3.558944e-5	-116.9017
154.5	3.527577e-5	-131.0513
155	3.500906e-5	-145.1809
155.5	3.466556e-5	-159.4816
156	3.43199e-5	-173.6341
156.5	3.41527e-5	172.2211
157	3.385459e-5	157.9404
157.5	3.365505e-5	143.6825
158	3.335707e-5	129.4466
158.5	3.29854e-5	115.2297
159	3.271882e-5	100.9008
159.5	3.260797e-5	86.73897
160	3.237822e-5	72.44997
160.5	3.224474e-5	58.22257
161	3.194621e-5	43.95917
161.5	3.174966e-5	29.81125
162	3.153532e-5	15.67983
162.5	3.129009e-5	1.53155
163	3.116042e-5	-12.686
163.5	3.086195e-5	-27.05326
164	3.063024e-5	-41.08286
164.5	3.041903e-5	-54.9366
165	3.028683e-5	-69.1339
165.5	2.997189e-5	-83.20062
166	2.971311e-5	-97.45327
166.5	2.938456e-5	-111.3764
167	2.924136e-5	-125.6796
167.5	2.900932e-5	-139.8994
168	2.870335e-5	-154.1302
168.5	2.837347e-5	-168.044
169	2.822896e-5	177.8959
169.5	2.794646e-5	163.6162
170	2.777745e-5	149.2535
170.5	2.747598e-5	135.0972
171	2.736744e-5	121.2627
171.5	2.711347e-5	106.9888
172	2.701466e-5	92.52633
172.5	2.671318e-5	78.54867
173	2.654045e-5	64.33427
173.5	2.62969e-5	50.30288
174	2.621775e-5	36.18261
174.5	2.59933e-5	22.0435
175	2.584977e-5	8.033174
175.5	2.559512e-5	-6.168962
176	2.546576e-5	-20.23217
176.5	2.515023e-5	-34.44701
177	2.505914e-5	-48.36467
177.5	2.49512e-5	-62.49039
178	2.475199e-5	-76.45246
178.5	2.447462e-5	-90.52694
179	2.416373e-5	-104.1627
179.5	2.412192e-5	-118.1173
180	2.387225e-5	-132.6235
180.5	2.372668e-5	-146.6398
181	2.360314e-5	-160.8823
181.5	2.334029e-5	-174.8078
182	2.319615e-5	171.2767
182.5	2.299605e-5	157.1395
183	2.286658e-5	142.924
183.5	2.258924e-5	128.6441
184	2.260439e-5	114.6756
184.5	2.222776e-5	100.3979
185	2.221314e-5	86.66548
185.5	2.204643e-5	72.11262
186	2.184933e-5	58.22022
186.5	2.160488e-5	44.05077
187	2.151854e-5	30.23321
187.5	2.13391e-5	16.36666
188	2.123273e-5	2.053427
188.5	2.105084e-5	-12.17091
189	2.096613e-5	-26.06668
189.5	2.086219e-5	-39.75753
190	2.071353e-5	-53.937
190.5	2.058115e-5	-67.65416
191	2.039964e-5	-81.60126
191.5	2.02801e-5	-95.73425
192	2.012154e-5	-109.7515
192.5	2.002096e-5	-123.6709
193	1.980943e-5	-137.7816
193.5	1.970532e-5	-151.2903
194	1.956042e-5	-165.4906
194.5	1.937885e-5	-179.3206
195	1.918074e-5	166.2023
195.5	1.903535e-5	152.3995
196	1.901098e-5	138.0211
196.5	1.873783e-5	124.0129
197	1.880451e-5	110.0551
197.5	1.850758e-5	95.76535
198	1.853649e-5	81.87666
198.5	1.843034e-5	67.87049
199	1.828497e-5	54.13357
199.5	1.822309e-5	39.93956
200	1.811263e-5	26.09755
200.5	1.813764e-5	11.78312
201	1.78112e-5	-2.034894
201.5	1.79042e-5	-15.84604
202	1.765887e-5	-30.05548
202.5	1.760506e-5	-43.26188
203	1.754956e-5	-57.68756
203.5	1.729672e-5	-71.34235
204	1.720848e-5	-85.60044
204.5	1.714581e-5	-99.2136
205	1.713623e-5	-113.1161
205.5	1.70062e-5	-126.9615
206	1.689506e-5	-141.1539
206.5	1.666687e-5	-154.9909
207	1.647161e-5	-168.6914
207.5	1.652552e-5	176.8791
208	1.648226e-5	162.7668
208.5	1.631171e-5	149.059
209	1.616948e-5	135.0107
209.5	1.603765e-5	121.0526
210	1.602966e-5	106.8379
210.5	1.605856e-5	92.76153
211	1.588417e-5	79.41754
211.5	1.580632e-5	64.86483
212	1.561332e-5	51.03531
212.5	1.571568e-5	36.80824
213	1.557321e-5	23.20217
213.5	1.561469e-5	9.369893
214	1.538047e-5	-4.588172
214.5	1.540934e-5	-18.36677
215	1.527579e-5	-32.29469
215.5	1.521481e-5	-45.97578
216	1.515298e-5	-60.11195
216.5	1.510694e-5	-74.08042
217	1.501859e-5	-88.17825
217.5	1.499732e-5	-101.9737
218	1.49787e-5	-115.7091
218.5	1.478718e-5	-129.5737
219	1.462362e-5	-143.4947
219.5	1.457036e-5	-157.6363
220	1.458699e-5	-171.7364
220.5	1.456807e-5	174.3064
221	1.444034e-5	160.5198
221.5	1.430845e-5	146.5408
222	1.417767e-5	132.8245
222.5	1.420132e-5	118.0297
223	1.411003e-5	104.0113
223.5	1.409805e-5	89.97918
224	1.407968e-5	76.41769
224.5	1.395563e-5	62.11815
225	1.391419e-5	48.26521
225.5	1.39811e-5	34.41365
226	1.389245e-5	20.69981
226.5	1.392304e-5	6.771813
227	1.382556e-5	-7.359729
227.5	1.375546e-5	-21.26165
228	1.366755e-5	-35.07119
228.5	1.371248e-5	-48.78618
229	1.35697e-5	-62.87159
229.5	1.357485e-5	-76.64815
230	1.347442e-5	-90.8897
230.5	1.337144e-5	-104.6748
231	1.337804e-5	-118.425
231.5	1.32783e-5	-132.3868
232	1.32009e-5	-146.7786
232.5	1.316363e-5	-160.476
233	1.311402e-5	-174.4888
233.5	1.301633e-5	171.3741
234	1.287674e-5	157.7017
234.5	1.295817e-5	143.5548
235	1.292401e-5	129.9528
235.5	1.290486e-5	115.6571
236	1.28229e-5	101.3264
236.5	1.274385e-5	87.68667
237	1.275519e-5	74.05947
237.5	1.284619e-5	59.79309
238	1.26778e-5	45.29258
238.5	1.26864e-5	31.32914
239	1.263606e-5	17.08093
239.5	1.262085e-5	4.033177
240	1.262864e-5	-10.20019
240.5	1.249592e-5	-24.47917
241	1.249967e-5	-38.23972
241.5	1.24417e-5	-52.56577
242	1.253333e-5	-66.00897
242.5	1.232769e-5	-79.79678
243	1.236518e-5	-93.1768
243.5	1.222496e-5	-108.0946
244	1.212872e-5	-121.7559
244.5	1.216769e-5	-135.7414
245	1.209742e-5	-149.7055
245.5	1.204775e-5	-163.3672
246	1.204102e-5	-177.8432
246.5	1.201768e-5	168.3998
247	1.18969e-5	154.1416
247.5	1.180885e-5	140.1591
248	1.179039e-5	125.921
248.5	1.173889e-5	112.156
249	1.19023e-5	97.62564
249.5	1.178358e-5	83.67096
250	1.176237e-5	70.37633
250.5	1.171585e-5	56.5604
251	1.171708e-5	41.70339
251.5	1.173916e-5	27.90969
252	1.170786e-5	14.02347
252.5	1.172316e-5	0.07432014
253	1.163659e-5	-13.71211
253.5	1.172331e-5	-28.36988
254	1.154819e-5	-42.23674
254.5	1.157457e-5	-55.78633
255	1.141818e-5	-69.31913
255.5	1.145378e-5	-83.79432
256	1.144324e-5	-97.74586
256.5	1.148085e-5	-111.7972
257	1.121588e-5	-125.0325
257.5	1.134998e-5	-139.3846
258	1.126728e-5	-153.9357
258.5	1.126754e-5	-167.8831
259	1.118505e-5	178.0685
259.5	1.106337e-5	164.2931
260	1.108637e-5	150.5262
260.5	1.109031e-5	135.8781
261	1.104592e-5	121.7739
261.5	1.096945e-5	107.9206
262	1.100698e-5	94.14618
262.5	1.089518e-5	79.47649
263	1.081441e-5	65.76759
263.5	1.085896e-5	51.12924
264	1.082213e-5	37.32325
264.5	1.080901e-5	23.44253
265	1.070539e-5	9.78344
265.5	1.078229e-5	-4.425083
266	1.071327e-5	-18.08586
266.5	1.08082e-5	-31.98103
267	1.077054e-5	-46.22496
267.5	1.063871e-5	-59.85431
268	1.070018e-5	-74.28892
268.5	1.069832e-5	-87.81927
269	1.062495e-5	-102.18
269.5	1.042795e-5	-116.0393
270	1.04791e-5	-129.6899
270.5	1.033464e-5	-143.9156
271	1.040963e-5	-158.0786
271.5	1.034568e-5	-172.6708
272	1.031867e-5	174.2798
272.5	1.033735e-5	160.0936
273	1.023645e-5	145.4975
273.5	1.025922e-5	131.857
274	1.024715e-5	117.3618
274.5	1.031012e-5	103.4314
275	1.025237e-5	89.09482
275.5	1.015318e-5	75.0568
276	1.012086e-5	61.20945
276.5	1.010579e-5	47.21865
277	1.016356e-5	33.37667
277.5	1.009277e-5	18.8122
278	1.0064e-5	5.213244
278.5	9.965581e-6	-8.923066
279	9.924464e-6	-22.24645
279.5	9.992204e-6	-36.31739
280	9.914172e-6	-50.88247
280.5	9.981975e-6	-65.14748
281	9.820263e-6	-78.3897
281.5	9.850805e-6	-92.27181
282	9.898579e-6	-106.109
282.5	9.90324e-6	-120.8307
283	9.749773e-6	-135.1254
283.5	9.721491e-6	-149.0068
284	9.719509e-6	-162.4181
284.5	9.718458e-6	-176.8467
285	9.666351e-6	168.6369
285.5	9.626811e-6	154.3738
286	9.463882e-6	140.5092
286.5	9.595244e-6	126.2664
287	9.518236e-6	112.5316
287.5	9.511145e-6	98.39576
288	9.43432e-6	83.89008
288.5	9.488369e-6	70.03747
289	9.457342e-6	56.2441
289.5	9.423492e-6	42.14921
290	9.33239e-6	28.30556
290.5	9.441557e-6	14.30104
291	9.349286e-6	0.5262154
291.5	9.378409e-6	-13.34269
292	9.359403e-6	-28.09119
292.5	9.366781e-6	-42.15276
293	9.271808e-6	-55.79252
293.5	9.371774e-6	-69.67363
294	9.284851e-6	-83.12566
294.5	9.254709e-6	-97.47536
295	9.081465e-6	-111.8918
295.5	9.129182e-6	-126.3123
296	9.177095e-6	-140.1399
296.5	9.10889e-6	-153.7161
297	9.049423e-6	-167.873
297.5	8.992548e-6	178.099
298	8.881309e-6	164.2162
298.5	8.875015e-6	149.7851
299	8.906284e-6	136.2137
299.5	8.918443e-6	121.8277
300	8.840007e-6	107.4777
300.5	8.941012e-6	93.25829
301	8.899594e-6	79.51685
301.5	8.855211e-6	65.51574
302	8.816327e-6	51.3099
302.5	8.780938e-6	36.54783
303	8.856663e-6	23.55431
303.5	8.764283e-6	9.032714
304	8.667179e-6	-4.778416
304.5	8.619651e-6	-19.37999
305	8.693686e-6	-32.27739
305.5	8.756924e-6	-47.0942
306	8.59489e-6	-60.44899
306.5	8.642727e-6	-74.72527
307	8.537697e-6	-88.93424
307.5	8.57061e-6	-101.972
308	8.622488e-6	-116.306
308.5	8.484255e-6	-131.0627
309	8.456656e-6	-144.3809
309.5	8.481218e-6	-159.2922
310	8.403304e-6	-172.9262
310.5	8.336842e-6	172.6985
311	8.276121e-6	158.2474
311.5	8.249509e-6	144.1479
312	8.266836e-6	130.0125
312.5	8.291088e-6	116.1799
313	8.201108e-6	101.6411
313.5	8.302978e-6	88.04797
314	8.286839e-6	73.99237
314.5	8.272274e-6	59.5268
315	8.303763e-6	45.82226
315.5	8.189264e-6	31.57269
316	8.245072e-6	18.44077
316.5	8.246017e-6	3.588852
317	8.157421e-6	-10.52817
317.5	8.11463e-6	-23.99527
318	8.043261e-6	-38.39345
318.5	8.102461e-6	-52.05825
319	8.026312e-6	-66.93246
319.5	8.102689e-6	-80.48411
320	7.990763e-6	-93.80884
320.5	7.981313e-6	-107.6159
321	7.890697e-6	-122.9814
321.5	7.771546e-6	-137.1272
322	7.915031e-6	-150.4886
322.5	7.830769e-6	-165.156
323	7.840544e-6	-178.1076
323.5	7.811997e-6	166.9863
324	7.670285e-6	153.4447
324.5	7.759085e-6	138.7005
325	7.794091e-6	124.6457
325.5	7.731574e-6	109.9853
326	7.731017e-6	96.46233
326.5	7.627983e-6	81.5026
327	7.606179e-6	68.58075
327.5	7.711781e-6	54.39325
328	7.714402e-6	39.98758
328.5	7.593166e-6	25.70226
329	7.697544e-6	11.91829
329.5	7.618623e-6	-2.443343
330	7.579794e-6	-16.23544
330.5	7.643636e-6	-30.58086
331	7.497515e-6	-44.32313
331.5	7.519891e-6	-58.43364
332	7.539317e-6	-72.40995
332.5	7.479332e-6	-86.6056
333	7.379477e-6	-99.73744
333.5	7.45144e-6	-114.2023
334	7.469363e-6	-128.3627
334.5	7.350338e-6	-142.5131
335	7.325531e-6	-156.9896
335.5	7.366052e-6	-171.285
336	7.346102e-6	174.772
336.5	7.248474e-6	160.7065
337	7.221229e-6	147.4454
337.5	7.214669e-6	132.2818
338	7.139589e-6	118.412
338.5	7.148732e-6	103.7208
339	7.197953e-6	90.26504
339.5	7.297082e-6	76.08556
340	7.184799e-6	61.41211
340.5	7.188349e-6	47.26847
341	7.131027e-6	33.57895
341.5	7.053258e-6	19.9319
342	7.170188e-6	4.663822
342.5	7.054181e-6	-8.223389
343	7.174823e-6	-22.61756
343.5	7.061321e-6	-37.04212
344	7.064775e-6	-49.84366
344.5	6.991662e-6	-64.89933
345	6.952811e-6	-78.49545
345.5	6.952563e-6	-93.92497
346	6.842864e-6	-106.7459
346.5	6.874622e-6	-120.5148
347	6.765476e-6	-134.7049
347.5	6.871496e-6	-148.7308
348	6.783686e-6	-163.2615
348.5	6.705386e-6	-176.6531
349	6.73686e-6	168.6905
349.5	6.720708e-6	154.4779
350	6.670552e-6	139.7964
