Source File Name:	17,3
Signal:	FFT - Ref1 Force - Mag. & Phase

Frequency	Magnitude	Phase
[ Hz ]	[ N ]	[ ° ]
10	0.0001135341	73.01183
10.5	0.0001117408	59.62798
11	0.0001135238	44.38396
11.5	0.0001126036	31.10296
12	0.0001132388	15.86831
12.5	0.0001136736	2.475155
13	0.0001126727	-12.2742
13.5	0.0001150105	-26.13851
14	0.0001131957	-40.36204
14.5	0.0001147873	-54.80559
15	0.0001141704	-68.18717
15.5	0.0001147074	-83.32415
16	0.0001145364	-96.82758
16.5	0.0001138862	-111.6677
17	0.0001151343	-125.1056
17.5	0.0001133964	-139.9638
18	0.0001153277	-153.8729
18.5	0.0001128414	-168.0721
19	0.0001144043	177.3145
19.5	0.0001129307	163.8204
20	0.0001136091	148.6157
20.5	0.0001134032	135.2888
21	0.0001126962	120.3286
21.5	0.000113263	106.648
22	0.0001119565	91.93324
22.5	0.0001131657	77.62112
23	0.0001119515	63.70615
23.5	0.00011293	49.00509
24	0.0001121839	35.2398
24.5	0.0001126372	20.21579
25	0.0001123563	6.727823
25.5	0.0001120387	-8.33502
26	0.0001129266	-21.95315
26.5	0.0001116799	-36.60023
27	0.0001126627	-50.69533
27.5	0.000111279	-64.88469
28	0.0001123657	-79.35457
28.5	0.0001114672	-93.13715
29	0.0001117056	-107.876
29.5	0.0001117096	-121.5773
30	0.0001108205	-136.2195
30.5	0.0001113735	-150.2521
31	0.0001104276	-164.6977
31.5	0.000110903	-178.8494
32	0.0001100484	166.9841
32.5	0.0001106074	152.3823
33	0.0001101405	138.4897
33.5	0.0001101853	123.7901
34	0.0001100485	109.898
34.5	0.0001095217	95.31262
35	0.0001098533	81.22279
35.5	0.0001093225	66.78803
36	0.000109539	52.62854
36.5	0.0001088726	38.27743
37	0.0001090714	24.00188
37.5	0.0001087849	9.907691
38	0.00010873	-4.662594
38.5	0.0001086682	-18.63802
39	0.0001084377	-33.16318
39.5	0.0001085238	-47.11808
40	0.000107882	-61.43658
40.5	0.0001080911	-75.60738
41	0.0001073262	-89.92809
41.5	0.0001078159	-104.1993
42	0.0001073446	-118.3241
42.5	0.000107102	-132.6733
43	0.0001070018	-146.8805
43.5	0.0001066265	-161.1817
44	0.0001063426	-175.4049
44.5	0.000106138	170.2328
45	0.0001060299	155.9989
45.5	0.0001056695	141.6412
46	0.0001057412	127.5842
46.5	0.0001052201	113.2042
47	0.0001052597	98.8893
47.5	0.000104902	84.68607
48	0.0001047211	70.42606
48.5	0.0001043986	56.15189
49	0.0001041737	41.91098
49.5	0.0001042168	27.63408
50	0.0001036819	13.3721
50.5	0.0001037435	-0.8501508
51	0.0001032781	-15.15841
51.5	0.0001032403	-29.39886
52	0.0001027226	-43.59546
52.5	0.0001028318	-57.96691
53	0.0001025791	-72.00057
53.5	0.0001021886	-86.32907
54	0.0001019586	-100.5186
54.5	0.0001016489	-114.8071
55	0.0001014965	-129.132
55.5	0.0001011775	-143.2673
56	0.0001011075	-157.5074
56.5	0.0001004952	-171.7452
57	0.0001003349	173.8852
57.5	0.0001003042	159.7186
58	9.978715e-5	145.5197
58.5	9.973431e-5	131.3431
59	9.934163e-5	117.0679
59.5	9.914881e-5	102.7287
60	9.871402e-5	88.50856
60.5	9.858886e-5	74.1424
61	9.821418e-5	59.89707
61.5	9.818785e-5	45.72216
62	9.752511e-5	31.517
62.5	9.76029e-5	17.09134
63	9.741492e-5	2.927717
63.5	9.709327e-5	-11.28701
64	9.71046e-5	-25.43108
64.5	9.621244e-5	-39.73122
65	9.626646e-5	-54.0837
65.5	9.59696e-5	-68.21426
66	9.576951e-5	-82.40964
66.5	9.546262e-5	-96.51503
67	9.520638e-5	-110.9732
67.5	9.491968e-5	-125.0438
68	9.467016e-5	-139.2453
68.5	9.43676e-5	-153.4852
69	9.402187e-5	-167.7629
69.5	9.374116e-5	177.8886
70	9.332407e-5	163.6812
70.5	9.328689e-5	149.5266
71	9.261045e-5	135.3073
71.5	9.25006e-5	120.93
72	9.227844e-5	106.7827
72.5	9.199268e-5	92.53864
73	9.16831e-5	78.28567
73.5	9.133082e-5	63.9682
74	9.107606e-5	49.72542
74.5	9.065132e-5	35.66433
75	9.068448e-5	21.26196
75.5	9.019608e-5	7.146172
76	8.987076e-5	-7.131063
76.5	8.94839e-5	-21.28563
77	8.91471e-5	-35.61587
77.5	8.898578e-5	-49.87833
78	8.886361e-5	-64.13984
78.5	8.856819e-5	-78.21661
79	8.81012e-5	-92.53134
79.5	8.788145e-5	-106.6753
80	8.734073e-5	-120.8993
80.5	8.71197e-5	-135.1716
81	8.698826e-5	-149.3351
81.5	8.665812e-5	-163.6553
82	8.616936e-5	-177.7603
82.5	8.574704e-5	167.9812
83	8.553935e-5	153.8777
83.5	8.509271e-5	139.5723
84	8.495593e-5	125.2606
84.5	8.46769e-5	111.1017
85	8.425651e-5	96.91928
85.5	8.388699e-5	82.64981
86	8.355193e-5	68.50571
86.5	8.309972e-5	54.17408
87	8.290048e-5	39.91205
87.5	8.274589e-5	25.74819
88	8.237545e-5	11.38174
88.5	8.207615e-5	-2.757668
89	8.179864e-5	-16.90415
89.5	8.148745e-5	-31.18791
90	8.129811e-5	-45.36003
90.5	8.09269e-5	-59.5825
91	8.058191e-5	-73.74566
91.5	8.007465e-5	-87.92315
92	7.992809e-5	-102.1484
92.5	7.942646e-5	-116.3019
93	7.909374e-5	-130.4738
93.5	7.881015e-5	-144.8316
94	7.852204e-5	-158.9496
94.5	7.825574e-5	-173.2932
95	7.78911e-5	172.6076
95.5	7.753267e-5	158.4168
96	7.719141e-5	144.2413
96.5	7.685352e-5	129.965
97	7.649669e-5	115.7369
97.5	7.620604e-5	101.4381
98	7.593808e-5	87.31416
98.5	7.569116e-5	73.18089
99	7.522228e-5	58.90612
99.5	7.497775e-5	44.69328
100	7.459517e-5	30.50385
100.5	7.428663e-5	16.23953
101	7.398197e-5	2.092362
101.5	7.367814e-5	-12.13943
102	7.348702e-5	-26.30928
102.5	7.290186e-5	-40.39462
103	7.268234e-5	-54.6708
103.5	7.236702e-5	-68.94169
104	7.207665e-5	-83.06047
104.5	7.167483e-5	-97.22547
105	7.143369e-5	-111.2415
105.5	7.094166e-5	-125.503
106	7.07076e-5	-139.8286
106.5	7.029978e-5	-153.8445
107	6.995095e-5	-168.0726
107.5	6.96525e-5	177.6873
108	6.924756e-5	163.525
108.5	6.905205e-5	149.3766
109	6.855864e-5	135.1195
109.5	6.845177e-5	120.9913
110	6.784481e-5	106.885
110.5	6.764691e-5	92.49132
111	6.735684e-5	78.54476
111.5	6.715275e-5	64.21838
112	6.666129e-5	50.07372
112.5	6.637107e-5	35.89119
113	6.600402e-5	21.74718
113.5	6.564749e-5	7.592382
114	6.531335e-5	-6.618246
114.5	6.493182e-5	-20.69307
115	6.477453e-5	-34.99223
115.5	6.436446e-5	-49.18463
116	6.418458e-5	-63.3151
116.5	6.373754e-5	-77.455
117	6.340318e-5	-91.66703
117.5	6.308963e-5	-105.6244
118	6.260415e-5	-120.0642
118.5	6.230376e-5	-134.0663
119	6.190399e-5	-148.2842
119.5	6.183898e-5	-162.441
120	6.12947e-5	-176.4653
120.5	6.113393e-5	169.1825
121	6.068373e-5	155.2275
121.5	6.032273e-5	140.7983
122	6.014224e-5	126.7768
122.5	5.973623e-5	112.7611
123	5.939068e-5	98.41047
123.5	5.892786e-5	84.36102
124	5.874718e-5	70.11302
124.5	5.841782e-5	56.02208
125	5.812559e-5	41.86339
125.5	5.791872e-5	27.68346
126	5.74672e-5	13.51568
126.5	5.719821e-5	-0.5914199
127	5.684296e-5	-14.76817
127.5	5.668434e-5	-28.9245
128	5.617362e-5	-42.93375
128.5	5.575849e-5	-57.17048
129	5.572083e-5	-71.30887
129.5	5.545139e-5	-85.35663
130	5.496651e-5	-99.55044
130.5	5.484725e-5	-113.7022
131	5.445316e-5	-127.6702
131.5	5.40069e-5	-141.8643
132	5.396883e-5	-156.2526
132.5	5.33909e-5	-170.1519
133	5.32371e-5	175.7409
133.5	5.28225e-5	161.659
134	5.240952e-5	147.4825
134.5	5.227557e-5	133.2515
135	5.189736e-5	119.333
135.5	5.161404e-5	105.0593
136	5.141922e-5	90.85934
136.5	5.110611e-5	76.8979
137	5.067013e-5	62.75084
137.5	5.049847e-5	48.63886
138	5.008276e-5	34.54752
138.5	4.983215e-5	20.27015
139	4.949754e-5	6.321583
139.5	4.924959e-5	-7.690277
140	4.898747e-5	-21.93844
140.5	4.858192e-5	-36.01221
141	4.853545e-5	-50.31201
141.5	4.819158e-5	-64.2057
142	4.786033e-5	-78.39993
142.5	4.745609e-5	-92.37695
143	4.722699e-5	-106.6161
143.5	4.699953e-5	-120.478
144	4.664461e-5	-134.6409
144.5	4.623443e-5	-148.7615
145	4.599983e-5	-162.6732
145.5	4.57116e-5	-176.8575
146	4.543862e-5	169.0229
146.5	4.510468e-5	154.9828
147	4.474074e-5	140.8364
147.5	4.454067e-5	126.7427
148	4.433434e-5	112.6705
148.5	4.388779e-5	98.48706
149	4.378742e-5	84.38683
149.5	4.345445e-5	70.39458
150	4.320925e-5	56.22461
150.5	4.300707e-5	42.21966
151	4.27065e-5	28.11653
151.5	4.235565e-5	14.0872
152	4.216252e-5	-0.08323692
152.5	4.18812e-5	-13.96754
153	4.157508e-5	-28.05252
153.5	4.132541e-5	-42.29955
154	4.104875e-5	-56.38499
154.5	4.09149e-5	-70.40459
155	4.064572e-5	-84.26937
155.5	4.032295e-5	-98.25819
156	4.003583e-5	-112.1309
156.5	3.979138e-5	-126.528
157	3.958404e-5	-140.3779
157.5	3.936366e-5	-154.4811
158	3.910014e-5	-168.6724
158.5	3.885296e-5	177.3858
159	3.8514e-5	163.2863
159.5	3.82876e-5	149.224
160	3.797582e-5	135.2239
160.5	3.782075e-5	121.0567
161	3.760731e-5	107.2868
161.5	3.726021e-5	93.16799
162	3.700038e-5	79.04662
162.5	3.684254e-5	64.95292
163	3.674989e-5	50.83879
163.5	3.643167e-5	37.12815
164	3.607064e-5	22.93055
164.5	3.585757e-5	8.788414
165	3.558458e-5	-5.093102
165.5	3.544943e-5	-18.98446
166	3.526274e-5	-33.08278
166.5	3.506989e-5	-47.06911
167	3.47786e-5	-60.96443
167.5	3.448715e-5	-75.25701
168	3.439864e-5	-88.91369
168.5	3.404959e-5	-103.2589
169	3.386804e-5	-117.0943
169.5	3.358113e-5	-131.1181
170	3.340918e-5	-144.9097
170.5	3.316842e-5	-159.0453
171	3.290318e-5	-173.0514
171.5	3.271241e-5	172.8303
172	3.244112e-5	159.1351
172.5	3.22973e-5	144.7031
173	3.199506e-5	130.8752
173.5	3.182918e-5	116.6276
174	3.157971e-5	102.7947
174.5	3.156109e-5	88.91244
175	3.132712e-5	74.90849
175.5	3.120886e-5	60.8768
176	3.077146e-5	46.93
176.5	3.07114e-5	32.92632
177	3.039121e-5	19.03522
177.5	3.030823e-5	4.865971
178	3.010852e-5	-9.031404
178.5	2.987151e-5	-22.98503
179	2.974952e-5	-36.92512
179.5	2.952467e-5	-50.96332
180	2.943332e-5	-64.82125
180.5	2.920935e-5	-78.65912
181	2.909581e-5	-92.66817
181.5	2.898285e-5	-106.6853
182	2.869374e-5	-120.5437
182.5	2.845383e-5	-134.4541
183	2.81867e-5	-148.2606
183.5	2.805925e-5	-162.5135
184	2.788255e-5	-176.6136
184.5	2.78412e-5	169.4157
185	2.74798e-5	155.8386
185.5	2.740995e-5	141.6819
186	2.720582e-5	127.791
186.5	2.702164e-5	113.7303
187	2.696181e-5	99.78104
187.5	2.675536e-5	85.90592
188	2.658575e-5	71.78245
188.5	2.643441e-5	58.15696
189	2.616544e-5	44.19695
189.5	2.605088e-5	30.30254
190	2.594621e-5	16.20444
190.5	2.568345e-5	2.36119
191	2.570854e-5	-11.46703
191.5	2.533501e-5	-25.26476
192	2.534002e-5	-39.60766
192.5	2.518497e-5	-53.52989
193	2.498853e-5	-67.4023
193.5	2.483108e-5	-80.9518
194	2.464756e-5	-95.09792
194.5	2.448121e-5	-108.9654
195	2.4308e-5	-122.8249
195.5	2.422173e-5	-136.9709
196	2.4183e-5	-150.521
196.5	2.396603e-5	-165.0146
197	2.384225e-5	-178.7519
197.5	2.365414e-5	167.4511
198	2.34697e-5	153.6016
198.5	2.328336e-5	139.4414
199	2.315222e-5	125.6478
199.5	2.302835e-5	111.8406
200	2.293378e-5	97.90163
200.5	2.284614e-5	84.03672
201	2.266464e-5	69.70895
201.5	2.251648e-5	55.98891
202	2.232405e-5	41.70602
202.5	2.229868e-5	28.23327
203	2.201157e-5	13.87339
203.5	2.212282e-5	0.3396111
204	2.197135e-5	-13.49126
204.5	2.184159e-5	-27.16881
205	2.171694e-5	-41.53227
205.5	2.155593e-5	-55.20077
206	2.149516e-5	-69.31912
206.5	2.137555e-5	-83.20631
207	2.12213e-5	-96.88878
207.5	2.111303e-5	-110.8921
208	2.10405e-5	-124.4126
208.5	2.076041e-5	-138.2411
209	2.07673e-5	-152.6831
209.5	2.053241e-5	-166.0543
210	2.047974e-5	179.469
210.5	2.044309e-5	165.8061
211	2.024985e-5	151.9649
211.5	2.006496e-5	137.8975
212	2.005773e-5	124.1975
212.5	2.004137e-5	110.2788
213	1.981892e-5	96.42457
213.5	1.976347e-5	82.51884
214	1.955672e-5	68.21904
214.5	1.964019e-5	54.43558
215	1.955258e-5	40.55739
215.5	1.937204e-5	26.67313
216	1.922576e-5	13.12488
216.5	1.911927e-5	-1.032667
217	1.901794e-5	-14.7523
217.5	1.897142e-5	-28.69059
218	1.883863e-5	-43.07985
218.5	1.87582e-5	-56.54827
219	1.863457e-5	-70.69085
219.5	1.85357e-5	-84.30022
220	1.835237e-5	-98.29447
220.5	1.835583e-5	-112.2268
221	1.82261e-5	-125.8906
221.5	1.825439e-5	-139.6223
222	1.796006e-5	-153.7571
222.5	1.800016e-5	-167.9951
223	1.784234e-5	178.416
223.5	1.782236e-5	164.2864
224	1.775994e-5	150.5006
224.5	1.764579e-5	136.1544
225	1.757065e-5	122.5593
225.5	1.742757e-5	109.1112
226	1.734044e-5	94.68889
226.5	1.733203e-5	81.22647
227	1.706867e-5	66.84213
227.5	1.70965e-5	53.00411
228	1.713745e-5	39.34736
228.5	1.691799e-5	25.35526
229	1.676486e-5	11.49677
229.5	1.661827e-5	-1.926121
230	1.671759e-5	-16.48153
230.5	1.663712e-5	-30.04065
231	1.6454e-5	-44.46323
231.5	1.643733e-5	-57.76939
232	1.638242e-5	-71.81176
232.5	1.628397e-5	-85.80636
233	1.623211e-5	-100.1884
233.5	1.613055e-5	-113.3784
234	1.603395e-5	-127.2828
234.5	1.588416e-5	-141.7397
235	1.583581e-5	-155.3046
235.5	1.569373e-5	-169.2283
236	1.575879e-5	176.7981
236.5	1.560803e-5	163.0565
237	1.550692e-5	148.6202
237.5	1.548354e-5	135.0537
238	1.538824e-5	121.1892
238.5	1.529026e-5	107.3514
239	1.510392e-5	93.20686
239.5	1.529119e-5	79.73613
240	1.511124e-5	66.12974
240.5	1.487883e-5	52.0671
241	1.505223e-5	37.86165
241.5	1.481993e-5	24.15507
242	1.475158e-5	9.671325
242.5	1.474718e-5	-4.152567
243	1.476461e-5	-18.24878
243.5	1.451627e-5	-31.89603
244	1.445352e-5	-46.16099
244.5	1.442541e-5	-59.59906
245	1.443897e-5	-73.17648
245.5	1.420717e-5	-88.05389
246	1.437002e-5	-101.4407
246.5	1.421171e-5	-115.2973
247	1.40425e-5	-129.1124
247.5	1.405312e-5	-143.0274
248	1.390692e-5	-156.8378
248.5	1.374036e-5	-170.7118
249	1.370242e-5	175.575
249.5	1.367912e-5	161.3558
250	1.369855e-5	147.8601
250.5	1.364097e-5	133.4093
251	1.351522e-5	119.4724
251.5	1.342003e-5	105.2783
252	1.34285e-5	91.44635
252.5	1.334903e-5	77.76823
253	1.330803e-5	63.89933
253.5	1.318168e-5	49.52668
254	1.303212e-5	36.21685
254.5	1.29328e-5	21.64151
255	1.301854e-5	7.848997
255.5	1.290877e-5	-6.398384
256	1.295982e-5	-19.9569
256.5	1.283697e-5	-34.42855
257	1.296451e-5	-47.00877
257.5	1.256367e-5	-61.43026
258	1.247217e-5	-75.17511
258.5	1.242814e-5	-88.42625
259	1.239055e-5	-102.7419
259.5	1.236285e-5	-117.3151
260	1.229074e-5	-130.9526
260.5	1.21908e-5	-144.7396
261	1.216885e-5	-158.3024
261.5	1.207643e-5	-172.8524
262	1.208899e-5	173.6397
262.5	1.188698e-5	159.8956
263	1.181428e-5	145.8247
263.5	1.176057e-5	131.7269
264	1.161566e-5	117.9412
264.5	1.154012e-5	103.2931
265	1.161783e-5	90.14606
265.5	1.154931e-5	75.8064
266	1.145428e-5	62.11843
266.5	1.132963e-5	48.61154
267	1.121231e-5	34.67875
267.5	1.120552e-5	20.36592
268	1.117867e-5	7.021844
268.5	1.121417e-5	-7.474907
269	1.099768e-5	-21.67413
269.5	1.104289e-5	-35.34349
270	1.098047e-5	-48.70177
270.5	1.09662e-5	-63.22578
271	1.084821e-5	-76.94017
271.5	1.098144e-5	-90.98869
272	1.072785e-5	-104.1828
272.5	1.066838e-5	-118.1183
273	1.061784e-5	-132.6594
273.5	1.047567e-5	-146.4373
274	1.044356e-5	-159.938
274.5	1.038662e-5	-174.692
275	1.039356e-5	171.8251
275.5	1.016398e-5	158.3378
276	1.010747e-5	143.9249
276.5	1.027589e-5	130.2756
277	1.01639e-5	116.4972
277.5	1.010277e-5	102.5506
278	1.002202e-5	89.13298
278.5	9.842184e-6	74.70654
279	9.833103e-6	61.15767
279.5	9.872037e-6	46.70801
280	9.706295e-6	33.34735
280.5	9.741157e-6	19.16887
281	9.572109e-6	5.662117
281.5	9.552935e-6	-9.338397
282	9.409596e-6	-22.97623
282.5	9.580572e-6	-36.73891
283	9.377438e-6	-50.6022
283.5	9.313272e-6	-64.27299
284	9.245801e-6	-78.23532
284.5	9.200397e-6	-91.66564
285	9.096913e-6	-105.4519
285.5	9.048919e-6	-119.1096
286	8.90708e-6	-133.4355
286.5	8.91543e-6	-146.4403
287	8.951664e-6	-162.0841
287.5	8.847994e-6	-173.9734
288	8.744502e-6	171.2898
288.5	8.767566e-6	157.3717
289	8.657346e-6	144.6934
289.5	8.586655e-6	129.6648
290	8.47608e-6	115.9621
290.5	8.429811e-6	102.2268
291	8.401433e-6	87.57384
291.5	8.241944e-6	73.79317
292	8.332047e-6	59.37803
292.5	8.304651e-6	45.57967
293	8.047163e-6	32.94992
293.5	8.156017e-6	18.34786
294	8.099377e-6	4.300078
294.5	8.051399e-6	-8.856023
295	8.084867e-6	-23.21656
295.5	8.089984e-6	-36.12387
296	7.89863e-6	-49.69108
296.5	7.957518e-6	-64.78696
297	7.834978e-6	-77.43899
297.5	7.76006e-6	-90.48424
298	7.60987e-6	-106.01
298.5	7.652519e-6	-119.3764
299	7.57081e-6	-133.4581
299.5	7.665813e-6	-147.6275
300	7.481065e-6	-159.5739
300.5	7.467214e-6	-175.4005
301	7.391553e-6	171.1941
301.5	7.247791e-6	158.3335
302	7.277336e-6	142.9841
302.5	7.235799e-6	129.581
303	7.242025e-6	116.7022
303.5	7.088408e-6	102.7526
304	6.994389e-6	89.59835
304.5	7.127252e-6	74.3544
305	6.956734e-6	60.60684
305.5	7.031053e-6	47.60813
306	6.943257e-6	33.62218
306.5	6.871454e-6	18.83981
307	6.866187e-6	5.780942
307.5	6.872644e-6	-7.886561
308	6.714673e-6	-21.58299
308.5	6.861892e-6	-35.25862
309	6.592747e-6	-48.51122
309.5	6.716983e-6	-62.77684
310	6.599703e-6	-76.5483
310.5	6.555611e-6	-90.4916
311	6.625778e-6	-104.4937
311.5	6.430683e-6	-116.4806
312	6.333102e-6	-131.4246
312.5	6.280306e-6	-144.0763
313	6.305782e-6	-158.821
313.5	6.312872e-6	-171.7853
314	6.208004e-6	174.0977
314.5	6.181518e-6	159.3824
315	6.141138e-6	144.9308
315.5	6.084422e-6	132.7076
316	5.975252e-6	118.0837
316.5	5.994737e-6	104.9747
317	6.072058e-6	91.07422
317.5	5.940353e-6	77.33602
318	5.958202e-6	62.86481
318.5	5.951247e-6	50.71288
319	5.727813e-6	36.26778
319.5	5.849549e-6	22.4508
320	5.896201e-6	7.756905
320.5	5.719447e-6	-5.203026
321	5.799678e-6	-18.52814
321.5	5.516178e-6	-30.32808
322	5.604157e-6	-44.44379
322.5	5.642017e-6	-58.83014
323	5.633924e-6	-72.783
323.5	5.55795e-6	-84.66728
324	5.494841e-6	-101.1318
324.5	5.48012e-6	-113.6882
325	5.290129e-6	-126.8819
325.5	5.456593e-6	-141.987
326	5.414426e-6	-155.0265
326.5	5.41611e-6	-169.4317
327	5.30828e-6	177.6127
327.5	5.147115e-6	164.2787
328	5.318661e-6	149.8934
328.5	5.303379e-6	136.635
329	5.326144e-6	122.9002
329.5	5.266088e-6	109.3639
330	5.121572e-6	95.31524
330.5	5.112527e-6	82.37817
331	5.120997e-6	68.59641
331.5	5.040064e-6	54.7048
332	5.215551e-6	40.31308
332.5	5.162828e-6	27.29031
333	5.057455e-6	13.65263
333.5	5.158252e-6	0.1390293
334	5.042888e-6	-13.60657
334.5	5.106463e-6	-26.8047
335	4.961732e-6	-41.26935
335.5	4.982215e-6	-55.17814
336	4.969739e-6	-67.89198
336.5	4.890121e-6	-81.52054
337	4.912326e-6	-94.57643
337.5	4.821223e-6	-109.0573
338	4.914419e-6	-122.9035
338.5	4.813691e-6	-136.1966
339	4.833075e-6	-150.8431
339.5	4.763576e-6	-163.4164
340	4.880097e-6	-177.8577
340.5	4.717013e-6	169.2101
341	4.84181e-6	155.1123
341.5	4.623928e-6	141.4193
342	4.712262e-6	127.663
342.5	4.628994e-6	114.0049
343	4.707615e-6	100.7021
343.5	4.712971e-6	86.71073
344	4.702334e-6	72.75749
344.5	4.646197e-6	58.11576
345	4.670424e-6	45.47207
345.5	4.690832e-6	30.71226
346	4.552752e-6	19.18834
346.5	4.563015e-6	4.402156
347	4.560497e-6	-8.016293
347.5	4.521272e-6	-21.19921
348	4.531232e-6	-36.70565
348.5	4.544733e-6	-50.36263
349	4.653763e-6	-64.76417
349.5	4.691575e-6	-76.7589
350	4.582997e-6	-90.83097
