Source File Name:	2,4
Signal:	FFT - Ref1 Force - Mag. & Phase

Frequency	Magnitude	Phase
[ Hz ]	[ N ]	[ ° ]
10	0.0001172983	69.6972
10.5	0.0001167328	54.23851
11	0.0001176444	40.60906
11.5	0.0001181346	25.03794
12	0.0001172153	10.59649
12.5	0.0001190423	-3.275684
13	0.0001187029	-18.68482
13.5	0.0001179153	-32.47537
14	0.0001196151	-46.45757
14.5	0.0001192946	-61.52669
15	0.0001187024	-75.20585
15.5	0.0001197937	-89.48667
16	0.0001191622	-103.987
16.5	0.0001191468	-117.8331
17	0.0001199222	-132.6799
17.5	0.0001180107	-146.6828
18	0.0001190411	-160.7587
18.5	0.0001192069	-175.7031
19	0.0001171714	170.1645
19.5	0.0001183688	156.1577
20	0.0001179131	141.161
20.5	0.0001167328	126.8433
21	0.0001175031	112.7919
21.5	0.0001169325	97.81282
22	0.0001169394	83.65796
22.5	0.0001166945	68.94479
23	0.0001167224	54.65989
23.5	0.0001169594	40.10854
24	0.0001165376	25.40625
24.5	0.0001166308	11.1792
25	0.0001165809	-3.263226
25.5	0.0001171086	-17.66872
26	0.0001165898	-32.4087
26.5	0.0001163429	-46.29124
27	0.000117416	-60.85605
27.5	0.0001166461	-75.64318
28	0.0001163323	-89.48026
28.5	0.0001172297	-103.9622
29	0.0001164526	-118.5878
29.5	0.0001162698	-132.7543
30	0.0001163037	-147.2343
30.5	0.0001159089	-161.471
31	0.0001161276	-175.9771
31.5	0.000115539	169.4425
32	0.0001155367	155.3175
32.5	0.000115503	140.646
33	0.0001150268	126.1674
33.5	0.0001146484	111.8144
34	0.0001148646	97.47279
34.5	0.0001147666	82.71863
35	0.0001140681	68.47974
35.5	0.0001145261	54.03692
36	0.0001144929	39.3971
36.5	0.0001140546	25.08948
37	0.0001141902	10.6052
37.5	0.0001140411	-3.773656
38	0.0001141543	-18.22942
38.5	0.0001139248	-32.67704
39	0.0001138531	-47.04896
39.5	0.0001137815	-61.34792
40	0.0001139257	-76.0085
40.5	0.0001132288	-90.30133
41	0.0001134737	-104.5124
41.5	0.0001133347	-119.0879
42	0.0001126556	-133.5532
42.5	0.0001127715	-147.6473
43	0.0001125772	-162.2677
43.5	0.0001122682	-176.6915
44	0.0001120415	168.9673
44.5	0.0001120089	154.5584
45	0.0001116227	140.0251
45.5	0.0001115547	125.5792
46	0.0001111903	111.1411
46.5	0.0001110091	96.74359
47	0.0001112236	82.30335
47.5	0.0001106628	67.71324
48	0.0001103407	53.39917
48.5	0.0001106883	38.95158
49	0.0001102627	24.38023
49.5	0.0001100473	10.05142
50	0.0001101056	-4.351557
50.5	0.0001099823	-18.78516
51	0.0001098586	-33.18289
51.5	0.0001097099	-47.655
52	0.000109482	-62.07281
52.5	0.0001093345	-76.33797
53	0.0001094935	-90.95921
53.5	0.000108793	-105.316
54	0.0001086945	-119.5097
54.5	0.0001088513	-134.174
55	0.0001079049	-148.5662
55.5	0.0001081697	-162.7625
56	0.0001077191	-177.3959
56.5	0.0001073037	168.2149
57	0.0001073994	154.024
57.5	0.0001070875	139.1651
58	0.0001064963	125.1098
58.5	0.0001068312	110.4562
59	0.0001061024	96.00732
59.5	0.0001060164	81.72794
60	0.0001061869	67.07573
60.5	0.0001053295	52.68265
61	0.0001055572	38.47531
61.5	0.0001054121	23.75408
62	0.0001049106	9.438243
62.5	0.0001049727	-4.80016
63	0.0001047018	-19.45383
63.5	0.0001045287	-33.62006
64	0.0001044122	-48.2627
64.5	0.0001039297	-62.3914
65	0.0001038743	-76.88134
65.5	0.0001038973	-91.22868
66	0.000103332	-105.8233
66.5	0.0001029164	-119.9571
67	0.000103148	-134.4133
67.5	0.0001025338	-148.9783
68	0.0001020606	-163.198
68.5	0.0001022535	-177.6612
69	0.0001017928	167.8163
69.5	0.0001012644	153.4762
70	0.0001014141	139.1607
70.5	0.0001009157	124.546
71	0.0001005012	110.3015
71.5	0.0001006583	95.71015
72	9.994522e-5	81.42649
72.5	0.0001001384	66.9586
73	9.984733e-5	52.40946
73.5	9.930455e-5	38.04446
74	9.957715e-5	23.85536
74.5	9.918031e-5	9.114723
75	9.897434e-5	-5.03146
75.5	9.873398e-5	-19.54762
76	9.864863e-5	-33.9384
76.5	9.830479e-5	-48.24207
77	9.821732e-5	-62.74538
77.5	9.767745e-5	-77.06329
78	9.778319e-5	-91.30003
78.5	9.740696e-5	-105.8781
79	9.681036e-5	-120.198
79.5	9.686077e-5	-134.4056
80	9.663197e-5	-149.0892
80.5	9.604001e-5	-163.4378
81	9.590473e-5	-177.6655
81.5	9.558959e-5	167.8018
82	9.520342e-5	153.3785
82.5	9.501635e-5	139.099
83	9.46849e-5	124.573
83.5	9.438217e-5	110.2827
84	9.432551e-5	95.72707
84.5	9.373439e-5	81.24623
85	9.35874e-5	67.0402
85.5	9.364168e-5	52.58581
86	9.300743e-5	37.86221
86.5	9.273266e-5	23.88496
87	9.287649e-5	9.304719
87.5	9.232574e-5	-5.059648
88	9.210466e-5	-19.40716
88.5	9.205942e-5	-33.68713
89	9.161953e-5	-48.18258
89.5	9.1457e-5	-62.51059
90	9.113195e-5	-76.91637
90.5	9.08414e-5	-91.23547
91	9.07124e-5	-105.6713
91.5	9.026821e-5	-120.0023
92	8.998443e-5	-134.2438
92.5	8.987976e-5	-148.7083
93	8.949319e-5	-163.159
93.5	8.906695e-5	-177.4665
94	8.889951e-5	168.2165
94.5	8.87417e-5	153.674
95	8.826302e-5	139.3512
95.5	8.788945e-5	124.9724
96	8.786175e-5	110.6475
96.5	8.73566e-5	96.14853
97	8.730562e-5	81.79615
97.5	8.682272e-5	67.341
98	8.665527e-5	53.14663
98.5	8.653488e-5	38.62468
99	8.597186e-5	24.2392
99.5	8.5981e-5	9.955421
100	8.579974e-5	-4.518828
100.5	8.551577e-5	-18.946
101	8.511075e-5	-33.1909
101.5	8.514315e-5	-47.61566
102	8.459841e-5	-61.97268
102.5	8.446205e-5	-76.20123
103	8.411314e-5	-90.67364
103.5	8.377655e-5	-104.9226
104	8.369647e-5	-119.3032
104.5	8.336583e-5	-133.6314
105	8.295994e-5	-148.0508
105.5	8.282774e-5	-162.3114
106	8.245254e-5	-176.8189
106.5	8.194589e-5	168.7496
107	8.19431e-5	154.5933
107.5	8.14629e-5	139.9717
108	8.108818e-5	125.7548
108.5	8.113532e-5	111.4569
109	8.063829e-5	96.91687
109.5	8.029136e-5	82.65345
110	8.038594e-5	68.24199
110.5	7.969122e-5	53.8327
111	7.967231e-5	39.49629
111.5	7.946973e-5	24.94898
112	7.916486e-5	10.78263
112.5	7.882668e-5	-3.646154
113	7.877733e-5	-17.96109
113.5	7.822306e-5	-32.34069
114	7.807737e-5	-46.49223
114.5	7.8101e-5	-61.0837
115	7.749617e-5	-75.30728
115.5	7.727159e-5	-89.63696
116	7.713695e-5	-104.0681
116.5	7.686913e-5	-118.2939
117	7.64088e-5	-132.6234
117.5	7.622905e-5	-147.0384
118	7.605242e-5	-161.2501
118.5	7.569016e-5	-175.7173
119	7.519707e-5	169.815
119.5	7.51206e-5	155.8678
120	7.495903e-5	141.2224
120.5	7.437734e-5	126.8854
121	7.439501e-5	112.6098
121.5	7.404419e-5	98.23843
122	7.378605e-5	83.7647
122.5	7.350414e-5	69.43312
123	7.326059e-5	55.21808
123.5	7.294128e-5	40.71006
124	7.275528e-5	26.48912
124.5	7.254925e-5	12.06987
125	7.210973e-5	-2.25978
125.5	7.206073e-5	-16.41508
126	7.197364e-5	-30.94928
126.5	7.136713e-5	-45.15495
127	7.142928e-5	-59.46054
127.5	7.109633e-5	-73.95129
128	7.056634e-5	-88.09317
128.5	7.071159e-5	-102.5344
129	7.011355e-5	-116.7336
129.5	6.988287e-5	-131.0193
130	6.968156e-5	-145.3616
130.5	6.935012e-5	-159.7051
131	6.906728e-5	-173.9822
131.5	6.888215e-5	171.5535
132	6.849255e-5	157.2617
132.5	6.834581e-5	143.0614
133	6.823145e-5	128.4391
133.5	6.758722e-5	114.2271
134	6.747842e-5	99.97145
134.5	6.730404e-5	85.52928
135	6.700853e-5	71.20481
135.5	6.685025e-5	56.98288
136	6.649089e-5	42.40832
136.5	6.629729e-5	28.34583
137	6.615196e-5	13.82542
137.5	6.576469e-5	-0.4812246
138	6.566984e-5	-14.6921
138.5	6.551504e-5	-29.10054
139	6.496337e-5	-43.33824
139.5	6.498651e-5	-57.64674
140	6.461133e-5	-71.99107
140.5	6.439929e-5	-86.30756
141	6.410868e-5	-100.5058
141.5	6.392411e-5	-114.8616
142	6.370479e-5	-129.1965
142.5	6.340738e-5	-143.5788
143	6.307948e-5	-157.8283
143.5	6.294019e-5	-172.0412
144	6.266265e-5	173.5089
144.5	6.232157e-5	159.2014
145	6.207523e-5	145.0338
145.5	6.200296e-5	130.4761
146	6.153522e-5	116.1683
146.5	6.134954e-5	102.0123
147	6.122949e-5	87.64436
147.5	6.094933e-5	73.27013
148	6.071724e-5	58.937
148.5	6.049361e-5	44.68345
149	6.046121e-5	30.29129
149.5	5.995352e-5	15.99656
150	5.982512e-5	1.705439
150.5	5.962233e-5	-12.49298
151	5.943769e-5	-26.8214
151.5	5.919275e-5	-41.19855
152	5.899775e-5	-55.37495
152.5	5.878449e-5	-69.66737
153	5.847131e-5	-84.02767
153.5	5.828898e-5	-98.31455
154	5.80068e-5	-112.4796
154.5	5.786403e-5	-126.7923
155	5.74573e-5	-141.1212
155.5	5.738213e-5	-155.3385
156	5.694635e-5	-169.6861
156.5	5.690828e-5	175.9925
157	5.652955e-5	161.6442
157.5	5.634464e-5	147.4709
158	5.61553e-5	133.1171
158.5	5.591894e-5	118.8179
159	5.553431e-5	104.4691
159.5	5.545831e-5	90.29699
160	5.540243e-5	75.79536
160.5	5.485882e-5	61.64752
161	5.493467e-5	47.28899
161.5	5.4692e-5	33.04887
162	5.439934e-5	18.60249
162.5	5.423059e-5	4.345536
163	5.407476e-5	-10.04556
163.5	5.381086e-5	-24.07882
164	5.35915e-5	-38.59368
164.5	5.341053e-5	-52.64724
165	5.3245e-5	-66.86774
165.5	5.301253e-5	-81.32899
166	5.275679e-5	-95.47804
166.5	5.26297e-5	-109.8243
167	5.233135e-5	-123.9471
167.5	5.230581e-5	-138.5808
168	5.169646e-5	-152.613
168.5	5.167597e-5	-166.857
169	5.157063e-5	178.6855
169.5	5.120597e-5	164.5552
170	5.099413e-5	150.154
170.5	5.091673e-5	135.9483
171	5.065181e-5	121.5545
171.5	5.033594e-5	107.2209
172	5.017698e-5	93.06464
172.5	5.009363e-5	78.66404
173	4.987689e-5	64.33705
173.5	4.96426e-5	49.99369
174	4.948045e-5	35.86037
174.5	4.933384e-5	21.35545
175	4.905082e-5	7.17947
175.5	4.891892e-5	-6.99387
176	4.872098e-5	-21.38309
176.5	4.851028e-5	-35.50052
177	4.850011e-5	-49.95653
177.5	4.815533e-5	-64.03542
178	4.80146e-5	-78.44706
178.5	4.780813e-5	-92.71088
179	4.757734e-5	-106.939
179.5	4.744101e-5	-121.1976
180	4.713315e-5	-135.5547
180.5	4.704333e-5	-149.7791
181	4.667426e-5	-164.006
181.5	4.656909e-5	-178.2114
182	4.639363e-5	167.3946
182.5	4.625121e-5	153.1188
183	4.604887e-5	138.8384
183.5	4.576136e-5	124.5423
184	4.568108e-5	110.2574
184.5	4.532388e-5	95.89229
185	4.513554e-5	81.7999
185.5	4.515801e-5	67.39477
186	4.472176e-5	53.16235
186.5	4.477339e-5	38.89926
187	4.451395e-5	24.67266
187.5	4.450259e-5	10.2145
188	4.407285e-5	-3.980812
188.5	4.407381e-5	-18.1458
189	4.403049e-5	-32.40279
189.5	4.35871e-5	-46.99008
190	4.349283e-5	-60.91229
190.5	4.333417e-5	-75.20699
191	4.312698e-5	-89.61223
191.5	4.29561e-5	-103.7506
192	4.269369e-5	-118.0814
192.5	4.26293e-5	-132.1079
193	4.243779e-5	-146.6046
193.5	4.218077e-5	-160.9407
194	4.193099e-5	-174.7804
194.5	4.189237e-5	170.5351
195	4.153365e-5	156.2731
195.5	4.141969e-5	142.0658
196	4.130301e-5	127.8928
196.5	4.107943e-5	113.428
197	4.080405e-5	99.28014
197.5	4.071555e-5	85.02069
198	4.063766e-5	70.69128
198.5	4.041238e-5	56.50046
199	4.011589e-5	42.05598
199.5	4.018716e-5	28.09088
200	3.997715e-5	13.49956
200.5	3.979403e-5	-0.6683621
201	3.948581e-5	-14.9874
201.5	3.950015e-5	-29.0491
202	3.931502e-5	-43.36023
202.5	3.904412e-5	-57.70149
203	3.892823e-5	-71.61662
203.5	3.883072e-5	-85.99483
204	3.87277e-5	-100.4687
204.5	3.836538e-5	-114.6935
205	3.829491e-5	-128.7436
205.5	3.819683e-5	-143.2194
206	3.781428e-5	-157.4609
206.5	3.768596e-5	-171.5334
207	3.757306e-5	174.0444
207.5	3.746687e-5	159.7963
208	3.7208e-5	145.4437
208.5	3.706856e-5	131.2374
209	3.695959e-5	117.0242
209.5	3.669015e-5	102.5864
210	3.650996e-5	88.55294
210.5	3.64891e-5	74.11465
211	3.624287e-5	59.94078
211.5	3.615052e-5	45.68729
212	3.616404e-5	31.32982
212.5	3.58243e-5	17.07906
213	3.577547e-5	2.714185
213.5	3.546121e-5	-11.44169
214	3.540746e-5	-25.615
214.5	3.530174e-5	-39.85604
215	3.506703e-5	-54.19728
215.5	3.493931e-5	-68.42984
216	3.483083e-5	-82.48035
216.5	3.475112e-5	-96.885
217	3.44497e-5	-111.2637
217.5	3.430589e-5	-125.2265
218	3.428936e-5	-139.548
218.5	3.402397e-5	-154.0962
219	3.387161e-5	-168.2783
219.5	3.367052e-5	177.7712
220	3.354276e-5	163.1893
220.5	3.323397e-5	148.9427
221	3.318995e-5	134.8625
221.5	3.305305e-5	120.7528
222	3.293839e-5	105.9946
222.5	3.275937e-5	92.16294
223	3.263272e-5	77.65507
223.5	3.254356e-5	63.39842
224	3.243951e-5	49.1573
224.5	3.214856e-5	34.7965
225	3.203391e-5	20.89114
225.5	3.206218e-5	6.268445
226	3.166977e-5	-7.678911
226.5	3.170504e-5	-21.87675
227	3.155557e-5	-36.34258
227.5	3.143061e-5	-50.59448
228	3.11925e-5	-64.65093
228.5	3.109337e-5	-78.86171
229	3.095351e-5	-93.01423
229.5	3.086462e-5	-107.5896
230	3.060518e-5	-121.6802
230.5	3.046001e-5	-135.9089
231	3.025939e-5	-150.0426
231.5	3.01982e-5	-164.4464
232	2.981752e-5	-178.7175
232.5	2.988973e-5	167.3168
233	2.974111e-5	152.9348
233.5	2.955081e-5	138.5998
234	2.943578e-5	124.4055
234.5	2.940748e-5	109.9621
235	2.914348e-5	95.67458
235.5	2.900092e-5	81.34728
236	2.888086e-5	67.43047
236.5	2.872303e-5	52.82561
237	2.847639e-5	38.95107
237.5	2.852251e-5	24.79621
238	2.840451e-5	10.39533
238.5	2.81652e-5	-3.971201
239	2.819941e-5	-17.91545
239.5	2.797312e-5	-32.12385
240	2.784376e-5	-46.2612
240.5	2.777722e-5	-60.80748
241	2.754104e-5	-74.86501
241.5	2.736608e-5	-89.11607
242	2.733028e-5	-103.2216
242.5	2.717509e-5	-117.9483
243	2.689272e-5	-131.4817
243.5	2.686004e-5	-146.0871
244	2.667823e-5	-160.3655
244.5	2.642736e-5	-174.3861
245	2.638356e-5	171.1405
245.5	2.624099e-5	156.9286
246	2.602769e-5	142.7294
246.5	2.599149e-5	128.7321
247	2.591699e-5	114.2295
247.5	2.576462e-5	99.9632
248	2.54655e-5	85.72994
248.5	2.556713e-5	71.53429
249	2.535042e-5	57.22211
249.5	2.522169e-5	42.83579
250	2.498516e-5	29.06511
250.5	2.506671e-5	14.56105
251	2.479238e-5	0.2510721
251.5	2.468169e-5	-13.65546
252	2.467617e-5	-28.01731
252.5	2.45421e-5	-42.16687
253	2.435274e-5	-56.38181
253.5	2.42829e-5	-70.57098
254	2.402345e-5	-84.63269
254.5	2.407326e-5	-98.87777
255	2.381529e-5	-113.2864
255.5	2.368574e-5	-127.2318
256	2.37431e-5	-141.2328
256.5	2.341838e-5	-155.8963
257	2.336375e-5	-169.6795
257.5	2.318106e-5	175.6457
258	2.301515e-5	161.508
258.5	2.297815e-5	147.2638
259	2.277952e-5	133.1218
259.5	2.264461e-5	118.9774
260	2.25776e-5	104.6786
260.5	2.251808e-5	90.35384
261	2.227121e-5	76.10435
261.5	2.218572e-5	62.0264
262	2.222713e-5	47.77652
262.5	2.191369e-5	33.50664
263	2.197893e-5	19.6053
263.5	2.187357e-5	5.349657
264	2.183384e-5	-9.113718
264.5	2.153333e-5	-23.19561
265	2.158578e-5	-37.40902
265.5	2.133718e-5	-51.75246
266	2.11995e-5	-65.70303
266.5	2.104879e-5	-79.95376
267	2.102233e-5	-93.80393
267.5	2.089883e-5	-108.1922
268	2.071606e-5	-122.5628
268.5	2.065093e-5	-136.2744
269	2.052066e-5	-150.8489
269.5	2.0428e-5	-165.1577
270	2.021799e-5	-179.1461
270.5	2.014599e-5	166.713
271	2.002689e-5	152.1711
271.5	1.994326e-5	137.9143
272	1.97508e-5	123.9681
272.5	1.975924e-5	109.65
273	1.964471e-5	95.28434
273.5	1.934398e-5	81.17474
274	1.938903e-5	67.42426
274.5	1.936172e-5	52.87558
275	1.919944e-5	38.67637
275.5	1.907474e-5	24.77724
276	1.909657e-5	10.5851
276.5	1.901896e-5	-3.717782
277	1.885923e-5	-18.04566
277.5	1.87107e-5	-31.8373
278	1.868405e-5	-46.44397
278.5	1.852756e-5	-60.24631
279	1.829952e-5	-74.70725
279.5	1.833656e-5	-88.47916
280	1.81157e-5	-103.052
280.5	1.804195e-5	-116.894
281	1.788676e-5	-130.9754
281.5	1.792245e-5	-145.1487
282	1.775092e-5	-159.5585
282.5	1.759512e-5	-174.0013
283	1.748542e-5	172.5152
283.5	1.755099e-5	158.0733
284	1.732966e-5	143.724
284.5	1.717235e-5	129.7709
285	1.708801e-5	115.6644
285.5	1.715637e-5	101.5689
286	1.686275e-5	86.71227
286.5	1.690474e-5	73.37836
287	1.675626e-5	58.99797
287.5	1.678161e-5	44.96128
288	1.659498e-5	30.55616
288.5	1.654615e-5	16.54085
289	1.64666e-5	2.78443
289.5	1.643272e-5	-12.13751
290	1.626065e-5	-25.85603
290.5	1.61492e-5	-39.73554
291	1.612357e-5	-54.35839
291.5	1.59193e-5	-68.05789
292	1.585197e-5	-82.16402
292.5	1.577488e-5	-96.04146
293	1.574988e-5	-110.8505
293.5	1.54632e-5	-124.4789
294	1.553378e-5	-138.787
294.5	1.536246e-5	-153.0381
295	1.523149e-5	-166.9069
295.5	1.511007e-5	178.6975
296	1.510728e-5	165.0682
296.5	1.501328e-5	150.0456
297	1.491199e-5	136.5909
297.5	1.491786e-5	122.1023
298	1.484321e-5	108.0266
298.5	1.466959e-5	93.85537
299	1.469001e-5	79.71143
299.5	1.457084e-5	65.46722
300	1.456853e-5	51.38627
300.5	1.427181e-5	37.76102
301	1.438583e-5	23.2758
301.5	1.43897e-5	9.493382
302	1.417362e-5	-5.464952
302.5	1.417256e-5	-19.17861
303	1.399655e-5	-32.86717
303.5	1.395411e-5	-47.26808
304	1.39119e-5	-61.09992
304.5	1.375408e-5	-75.53155
305	1.356842e-5	-88.99484
305.5	1.369651e-5	-103.4086
306	1.349498e-5	-117.7064
306.5	1.33363e-5	-131.5914
307	1.330304e-5	-145.7421
307.5	1.333029e-5	-159.7198
308	1.324376e-5	-174.3565
308.5	1.310073e-5	172.1346
309	1.310035e-5	157.5306
309.5	1.288388e-5	143.2891
310	1.288792e-5	129.5415
310.5	1.277293e-5	115.4405
311	1.284216e-5	100.763
311.5	1.260194e-5	87.07528
312	1.259103e-5	72.9955
312.5	1.264591e-5	59.33562
313	1.258443e-5	44.41368
313.5	1.241766e-5	30.88617
314	1.245394e-5	16.62327
314.5	1.241527e-5	2.624856
315	1.226282e-5	-12.23493
315.5	1.219119e-5	-24.94547
316	1.220918e-5	-39.62383
316.5	1.201094e-5	-53.61402
317	1.197749e-5	-67.63379
317.5	1.183376e-5	-81.45238
318	1.183605e-5	-94.9502
318.5	1.180353e-5	-109.9164
319	1.165913e-5	-123.9893
319.5	1.167749e-5	-137.053
320	1.157891e-5	-151.8716
320.5	1.141418e-5	-166.5289
321	1.141039e-5	-179.8418
321.5	1.138475e-5	166.3901
322	1.130446e-5	151.4095
322.5	1.116948e-5	137.7057
323	1.122706e-5	123.7074
323.5	1.103246e-5	108.9485
324	1.111867e-5	95.18292
324.5	1.084475e-5	81.59523
325	1.103359e-5	67.13768
325.5	1.090347e-5	52.76052
326	1.087629e-5	39.0287
326.5	1.073137e-5	24.63935
327	1.086405e-5	10.84949
327.5	1.076498e-5	-3.643718
328	1.05422e-5	-16.88294
328.5	1.074702e-5	-31.22559
329	1.052685e-5	-44.6377
329.5	1.062004e-5	-59.09066
330	1.033146e-5	-73.66638
330.5	1.047479e-5	-87.09594
331	1.038608e-5	-101.231
331.5	1.025756e-5	-115.5707
332	1.009938e-5	-129.239
332.5	1.013063e-5	-143.1283
333	1.005005e-5	-157.5461
333.5	9.978666e-6	-171.5401
334	9.982889e-6	174.6738
334.5	9.957659e-6	160.228
335	9.841989e-6	145.9286
335.5	9.823116e-6	131.8692
336	9.781165e-6	118.332
336.5	9.788865e-6	103.8796
337	9.595302e-6	89.15981
337.5	9.576494e-6	76.21242
338	9.692678e-6	61.70362
338.5	9.530784e-6	47.01432
339	9.518762e-6	34.06057
339.5	9.495894e-6	19.40685
340	9.44874e-6	5.329827
340.5	9.449334e-6	-8.35561
341	9.358959e-6	-22.57042
341.5	9.229631e-6	-35.97758
342	9.397653e-6	-50.91797
342.5	9.146996e-6	-64.40573
343	9.113776e-6	-78.60605
343.5	9.168725e-6	-92.48524
344	9.075352e-6	-106.8139
344.5	8.835665e-6	-120.057
345	9.002775e-6	-134.4268
345.5	8.882161e-6	-148.8851
346	8.708007e-6	-162.9703
346.5	8.752011e-6	-176.3062
347	8.804969e-6	169.037
347.5	8.702873e-6	155.4317
348	8.531657e-6	140.7591
348.5	8.676071e-6	127.9212
349	8.576875e-6	112.5264
349.5	8.562639e-6	98.73246
350	8.463409e-6	84.74792
