Source File Name:	20,2
Signal:	FFT - Vib Velocity - Mag. & Phase

Frequency	Magnitude	Phase
[ Hz ]	[ m/s ]	[ ° ]
10	14.42955	17.16817
10.5	15.03773	-0.6044279
11	13.64915	-16.36081
11.5	16.41571	-29.03658
12	15.75443	-43.61
12.5	14.36391	-87.99926
13	19.12572	-82.66546
13.5	15.76806	-111.6269
14	17.77273	-129.3022
14.5	17.65927	-151.794
15	18.4591	-167.3481
15.5	18.26238	168.8925
16	19.50167	152.7045
16.5	19.68518	128.6517
17	22.02168	106.794
17.5	22.9986	83.19252
18	23.8143	57.85863
18.5	25.05149	25.34328
19	26.20677	-2.099318
19.5	27.54255	-31.58431
20	27.06997	-65.22608
20.5	24.98925	-100.0641
21	22.29243	-133.3684
21.5	19.72088	-159.6023
22	13.24028	178.1176
22.5	13.62441	152.436
23	10.5843	116.9331
23.5	10.4328	103.6993
24	9.866755	78.23343
24.5	9.03522	64.81357
25	8.438053	42.37475
25.5	9.119724	25.30943
26	8.546155	7.712544
26.5	8.78852	-12.79674
27	8.133749	-31.43626
27.5	8.410975	-49.01887
28	8.249824	-69.55588
28.5	8.116797	-87.83364
29	7.669937	-107.1129
29.5	7.529704	-124.6544
30	7.488122	-141.9581
30.5	7.394971	-159.255
31	7.242714	-177.3185
31.5	7.140253	166.8518
32	7.010428	151.3405
32.5	7.109283	133.0296
33	7.04883	116.2627
33.5	7.202365	99.54897
34	7.008343	82.83022
34.5	7.161562	65.86335
35	7.009865	49.37014
35.5	7.151121	33.32746
36	7.087013	16.3646
36.5	7.070664	1.235549
37	6.910296	-14.85042
37.5	6.825122	-31.36306
38	6.865911	-47.94176
38.5	6.899741	-63.82764
39	6.754932	-80.0582
39.5	6.616279	-94.96782
40	6.479745	-110.6418
40.5	6.439866	-128.2151
41	6.232169	-141.8394
41.5	6.263469	-156.8209
42	6.134052	-171.0109
42.5	6.150255	174.7717
43	6.272582	160.6322
43.5	6.469775	142.7644
44	6.424632	127.8549
44.5	6.553183	111.3697
45	6.397091	96.3204
45.5	6.404675	80.15175
46	6.616235	64.94925
46.5	6.559409	47.1586
47	6.479732	32.82685
47.5	6.594123	18.07083
48	6.552656	2.519498
48.5	6.550933	-14.98921
49	5.916129	-30.86898
49.5	6.553614	-45.85663
50	6.580186	-60.63013
50.5	6.534142	-76.95303
51	6.39156	-90.99497
51.5	6.294913	-107.6212
52	6.491955	-120.4366
52.5	6.638479	-138.8622
53	6.629021	-152.8951
53.5	6.353149	-169.4366
54	6.742482	174.6477
54.5	6.130277	158.5172
55	6.590058	142.4137
55.5	6.231153	126.9309
56	6.436052	112.3332
56.5	6.280997	97.46738
57	6.366857	81.38703
57.5	6.264271	65.52439
58	6.454746	48.49377
58.5	6.235917	32.83458
59	6.209003	17.64491
59.5	6.156159	2.490572
60	6.062219	-13.32138
60.5	6.02671	-28.18608
61	6.093185	-44.41611
61.5	6.080989	-59.08893
62	6.048362	-75.32349
62.5	5.833443	-91.3637
63	5.880414	-106.1619
63.5	5.78175	-121.5029
64	5.858433	-138.1735
64.5	5.755229	-152.4644
65	5.69272	-167.4333
65.5	5.614076	176.2077
66	5.684032	160.9612
66.5	5.569588	143.4603
67	5.506028	128.5691
67.5	5.525655	114.6263
68	5.418092	98.27879
68.5	5.31	83.11459
69	5.376361	66.5451
69.5	5.279503	50.59851
70	5.186611	35.50784
70.5	5.253495	21.44928
71	5.077008	4.877787
71.5	4.904768	-9.125934
72	5.090999	-25.16819
72.5	5.024264	-40.79877
73	4.984111	-56.37289
73.5	4.87031	-71.52647
74	4.787238	-86.99826
74.5	4.676023	-103.4907
75	4.764966	-116.9841
75.5	4.752856	-133.4608
76	4.634789	-148.0071
76.5	4.655807	-164.2954
77	4.543275	179.5141
77.5	4.501884	163.1376
78	4.369745	146.7151
78.5	4.379135	132.2856
79	4.228724	116.6377
79.5	4.0995	102.0763
80	4.103227	85.89374
80.5	4.036695	70.80039
81	4.046816	54.36868
81.5	4.096977	39.55376
82	3.946586	23.79031
82.5	3.809222	7.095231
83	3.694717	-9.099996
83.5	3.583833	-24.53334
84	3.57009	-38.67422
84.5	3.585011	-54.69846
85	3.349409	-68.37964
85.5	3.290196	-83.5514
86	3.249969	-99.58517
86.5	3.306048	-115.3523
87	3.21468	-131.8536
87.5	3.191372	-147.3859
88	2.979943	-163.4337
88.5	2.876579	-178.2206
89	2.832645	163.4753
89.5	2.705729	149.7003
90	2.692005	134.8791
90.5	2.572355	118.4341
91	2.494051	103.6591
91.5	2.380662	85.57882
92	2.277412	69.59198
92.5	2.232202	53.60909
93	2.060778	42.25132
93.5	2.048958	26.72288
94	1.97439	9.285901
94.5	1.929122	-8.41563
95	1.726884	-27.15887
95.5	1.740055	-39.26986
96	1.649952	-53.45403
96.5	1.478402	-73.03614
97	1.361796	-92.34852
97.5	1.213965	-108.5014
98	1.122364	-127.9997
98.5	1.041926	-142.5017
99	0.9113037	-154.8067
99.5	0.6035909	-178.7721
100	0.5965372	169.5204
100.5	0.5793172	139.5506
101	0.4769982	110.484
101.5	0.4314801	77.48554
102	0.2954663	24.84086
102.5	0.3970208	-28.87456
103	0.4967565	-59.4041
103.5	0.5756626	-76.51726
104	0.6697079	-96.79261
104.5	0.9049202	-121.914
105	1.077565	-137.756
105.5	1.340595	-162.8862
106	1.439917	-176.8149
106.5	1.647091	164.5676
107	1.725521	143.4103
107.5	1.948157	128.2419
108	2.175866	111.1282
108.5	2.281378	94.12391
109	2.507585	81.66535
109.5	2.759377	64.09439
110	2.968741	44.79194
110.5	3.259373	29.09769
111	3.63255	12.37247
111.5	3.789196	-6.460224
112	4.052279	-22.49035
112.5	4.154872	-41.68594
113	4.24951	-60.57972
113.5	4.349828	-74.9501
114	4.639434	-90.14731
114.5	4.74929	-107.3419
115	4.753863	-122.3811
115.5	4.889567	-137.5263
116	4.994154	-152.9501
116.5	5.263403	-165.0015
117	5.646968	-178.1468
117.5	6.119204	169.1144
118	6.764176	154.5736
118.5	7.626656	139.5466
119	8.694457	122.4351
119.5	9.819643	104.92
120	11.18144	86.29988
120.5	12.29298	65.90587
121	13.43427	45.59933
121.5	14.6906	24.75329
122	15.73702	3.441894
122.5	16.70205	-18.23943
123	17.45724	-39.5722
123.5	18.10553	-61.70006
124	18.51239	-84.19537
124.5	18.75995	-105.4337
125	18.83996	-127.437
125.5	18.62382	-149.0487
126	18.30056	-170.3364
126.5	17.81699	168.007
127	17.25312	147.0513
127.5	16.53187	126.7832
128	15.76175	107.1175
128.5	14.95081	86.88139
129	13.95369	68.16989
129.5	13.34991	49.85638
130	12.69544	31.39333
130.5	12.18077	14.36908
131	11.57596	-3.860277
131.5	11.00094	-21.56216
132	10.53735	-39.15113
132.5	10.11025	-56.37819
133	9.754544	-74.22249
133.5	9.239976	-90.77025
134	8.893876	-107.6766
134.5	8.480578	-125.6083
135	8.147755	-142.0078
135.5	7.983302	-158.754
136	7.608982	-176.3606
136.5	7.352185	167.4111
137	7.084909	150.0261
137.5	6.842361	132.0429
138	6.57886	114.7655
138.5	6.38238	98.90693
139	6.089755	81.01818
139.5	5.881678	64.87518
140	5.74404	47.54809
140.5	5.622561	28.74676
141	5.446516	10.76163
141.5	5.202315	-5.58932
142	5.001362	-23.60717
142.5	4.746521	-41.98133
143	4.554016	-59.07723
143.5	4.438274	-77.70214
144	4.352385	-94.52763
144.5	4.204256	-112.1018
145	4.02649	-130.393
145.5	3.901294	-150.4814
146	3.715669	-169.369
146.5	3.689369	172.4057
147	3.568379	151.9482
147.5	3.302283	135.9304
148	3.285928	116.2004
148.5	3.182202	96.24665
149	3.198784	77.23083
149.5	3.119632	57.97964
150	3.150698	39.77893
150.5	3.083854	18.56679
151	3.060373	-1.080087
151.5	3.098678	-23.46991
152	3.008306	-40.24213
152.5	3.108541	-57.86934
153	3.140956	-79.06852
153.5	3.192919	-97.61467
154	3.272841	-117.372
154.5	3.487711	-136.6929
155	3.608058	-155.574
155.5	3.523038	-174.8463
156	3.661247	166.8096
156.5	3.787233	148.6463
157	3.960792	131.1928
157.5	4.270893	112.8567
158	4.46336	96.74628
158.5	4.669736	77.17381
159	4.880189	58.0524
159.5	5.130885	39.806
160	5.338745	21.5255
160.5	5.617016	4.605371
161	5.800106	-12.86061
161.5	6.031797	-30.13962
162	6.334195	-48.36261
162.5	6.693551	-65.82579
163	7.056014	-82.87001
163.5	7.349898	-100.3518
164	7.740064	-117.7279
164.5	8.070803	-135.4757
165	8.468814	-153.222
165.5	9.01681	-170.721
166	9.472034	172.0361
166.5	9.912841	153.7618
167	10.44678	136.1215
167.5	11.06572	118.0322
168	11.70451	99.45819
168.5	12.45313	80.9692
169	13.00696	62.03315
169.5	13.53551	42.77219
170	14.14276	23.17235
170.5	14.60977	4.088734
171	15.15323	-15.06037
171.5	15.72509	-33.97838
172	16.25616	-53.68918
172.5	16.54161	-73.95618
173	16.98793	-93.50301
173.5	17.35384	-113.6955
174	17.55396	-133.5353
174.5	17.72048	-153.553
175	17.69943	-173.8985
175.5	17.62683	165.6003
176	17.44963	145.3818
176.5	17.2417	125.5906
177	16.86856	105.4824
177.5	16.30784	85.7149
178	15.85425	66.02788
178.5	15.16626	46.21867
179	14.63473	27.67032
179.5	14.10489	8.79179
180	13.39761	-10.25246
180.5	12.6218	-29.21857
181	11.88811	-46.66437
181.5	11.32202	-64.3884
182	10.70735	-81.83802
182.5	10.08589	-98.17088
183	9.478438	-115.4849
183.5	8.962074	-131.4776
184	8.591872	-147.1181
184.5	8.269743	-162.5726
185	8.052363	-178.4608
185.5	7.676397	166.1144
186	7.445721	150.2559
186.5	7.292125	134.1173
187	7.22185	118.3534
187.5	7.112844	102.5432
188	6.936465	86.12832
188.5	6.735721	70.13985
189	6.544786	54.52931
189.5	6.621248	37.17852
190	6.557637	20.00033
190.5	6.418814	3.455788
191	6.162863	-13.71788
191.5	6.032871	-28.89769
192	5.985717	-46.58478
192.5	5.906862	-64.49994
193	5.825389	-81.87895
193.5	5.673672	-98.45759
194	5.536532	-116.5935
194.5	5.359276	-135.2649
195	5.15284	-153.685
195.5	4.877302	-171.9787
196	4.680114	172.107
196.5	4.570546	154.7327
197	4.217193	135.9715
197.5	4.072021	118.2973
198	3.901803	101.1271
198.5	3.713431	83.97829
199	3.562725	66.08882
199.5	3.325695	49.479
200	3.107344	30.9719
200.5	3.06167	12.41201
201	2.966368	-6.090111
201.5	2.672433	-24.10097
202	2.557423	-40.56586
202.5	2.317865	-59.35629
203	2.182787	-76.86394
203.5	2.167764	-97.33242
204	2.068697	-113.7811
204.5	1.946295	-130.8538
205	1.901587	-148.2171
205.5	1.923581	-170.3439
206	1.879764	164.9277
206.5	1.896677	143.1784
207	1.878498	121.4186
207.5	1.768089	99.49315
208	1.757889	74.89102
208.5	1.746313	51.08772
209	1.825725	29.18234
209.5	1.823707	5.079524
210	1.824459	-12.13389
210.5	1.925147	-34.76354
211	2.042713	-57.96811
211.5	2.251877	-78.50487
212	2.327397	-100.0449
212.5	2.407387	-121.2078
213	2.489746	-139.8524
213.5	2.691275	-160.0104
214	2.983559	177.1056
214.5	3.032663	158.8983
215	3.149498	139.9238
215.5	3.315686	120.1432
216	3.487813	100.881
216.5	3.678204	79.93158
217	3.889812	60.99454
217.5	3.937987	43.56136
218	4.080892	26.06765
218.5	4.394272	6.385116
219	4.490561	-14.23898
219.5	4.68632	-32.07894
220	4.922107	-50.51133
220.5	5.097497	-68.62746
221	5.246777	-88.19555
221.5	5.412678	-108.2628
222	5.573327	-128.5264
222.5	5.591456	-146.4602
223	5.806454	-164.9155
223.5	5.857064	175.5614
224	5.85056	157.8481
224.5	6.17695	137.8726
225	6.350512	117.9761
225.5	6.293578	98.23527
226	6.298965	79.08088
226.5	6.337754	59.47746
227	6.22221	39.57822
227.5	6.210825	20.52516
228	6.190181	2.483204
228.5	6.072518	-15.63557
229	6.132094	-35.09043
229.5	6.083598	-55.06538
230	5.989766	-74.41086
230.5	5.905391	-93.59985
231	5.826181	-111.8396
231.5	5.574642	-131.6471
232	5.36658	-150.4477
232.5	5.325191	-169.1449
233	5.214219	172.0796
233.5	5.076499	153.2692
234	4.83915	135.2095
234.5	4.639456	116.9892
235	4.422071	97.32726
235.5	4.295061	80.65454
236	4.299789	63.45045
236.5	4.15367	45.1969
237	4.067206	27.10715
237.5	3.861741	7.660166
238	3.67879	-11.24621
238.5	3.571239	-29.33954
239	3.385407	-45.1851
239.5	3.206669	-62.27419
240	3.078788	-78.18965
240.5	3.094445	-94.66236
241	3.025257	-114.4133
241.5	2.993373	-130.9373
242	2.861513	-147.9358
242.5	2.706888	-164.7247
243	2.681132	177.9355
243.5	2.654864	161.4719
244	2.665179	143.2343
244.5	2.598773	126.7166
245	2.537526	110.4889
245.5	2.408671	91.73136
246	2.360611	74.47914
246.5	2.373101	59.10303
247	2.393866	44.44357
247.5	2.470016	28.26224
248	2.504653	11.57882
248.5	2.45181	-9.500811
249	2.407104	-28.36126
249.5	2.494988	-43.01621
250	2.50437	-61.99209
250.5	2.41401	-78.0804
251	2.407086	-94.28771
251.5	2.349873	-112.1807
252	2.452374	-130.2555
252.5	2.512597	-146.2959
253	2.566032	-163.9041
253.5	2.43877	178.1905
254	2.456973	163.1876
254.5	2.548608	144.7384
255	2.537347	126.167
255.5	2.644071	109.4794
256	2.551563	92.54957
256.5	2.495092	75.7241
257	2.560493	58.79145
257.5	2.638771	42.21088
258	2.582378	23.28302
258.5	2.623863	9.761798
259	2.63666	-6.463227
259.5	2.562058	-25.03135
260	2.685822	-40.98789
260.5	2.742407	-57.76758
261	2.7234	-74.5666
261.5	2.716332	-88.91998
262	2.772937	-103.353
262.5	2.800292	-123.4534
263	2.820195	-139.3229
263.5	2.948172	-155.166
264	2.92538	-170.8107
264.5	2.983982	174.1644
265	3.031019	157.3252
265.5	3.045645	139.4909
266	3.076434	123.0143
266.5	3.276343	108.3365
267	3.348818	90.68796
267.5	3.212115	74.42989
268	3.324132	60.05186
268.5	3.446243	42.91423
269	3.595925	25.62946
269.5	3.742082	8.186976
270	3.761973	-8.468514
270.5	3.700007	-27.0581
271	3.747953	-43.77505
271.5	3.749821	-61.0122
272	3.687854	-77.05797
272.5	3.836473	-91.57434
273	3.84508	-108.3549
273.5	3.841998	-126.1552
274	3.942716	-143.6333
274.5	3.975938	-160.3455
275	3.947319	-178.3339
275.5	3.905838	166.7068
276	3.887636	149.2668
276.5	3.766075	131.4178
277	3.85061	115.5525
277.5	3.848174	98.53034
278	3.816158	82.42574
278.5	3.702933	66.20462
279	3.616384	49.90746
279.5	3.554535	32.07364
280	3.444626	16.82264
280.5	3.564309	2.139424
281	3.433502	-14.20442
281.5	3.348087	-28.79535
282	3.352847	-45.83628
282.5	3.218082	-62.48647
283	3.124048	-79.37141
283.5	3.088117	-91.72833
284	3.00994	-107.1305
284.5	2.782378	-122.162
285	2.828603	-134.1884
285.5	2.787217	-149.969
286	2.76262	-163.9764
286.5	2.829676	-177.7509
287	2.716089	168.3699
287.5	2.634193	153.2289
288	2.647749	139.5273
288.5	2.65984	124.9315
289	2.573763	112.6492
289.5	2.695533	101.3511
290	2.716978	87.72662
290.5	2.707858	73.49305
291	2.805046	57.8358
291.5	2.883325	44.95428
292	2.998904	31.60305
292.5	3.113987	17.67126
293	3.188151	2.171063
293.5	3.129791	-12.39452
294	3.270689	-27.88343
294.5	3.419608	-43.10503
295	3.566116	-57.17325
295.5	3.604681	-73.03886
296	3.675506	-87.49037
296.5	3.748361	-103.6033
297	3.80046	-119.7435
297.5	3.956057	-136.0772
298	3.980849	-150.3672
298.5	4.067339	-165.4285
299	4.118827	178.1583
299.5	4.207311	162.8605
300	4.268013	145.9659
300.5	4.367175	129.8686
301	4.405092	114.1089
301.5	4.31973	99.02539
302	4.401312	82.97569
302.5	4.415143	67.42822
303	4.51484	52.11295
303.5	4.537778	35.69925
304	4.545474	21.62928
304.5	4.535878	5.947626
305	4.557316	-10.10342
305.5	4.636812	-26.16644
306	4.639484	-40.37164
306.5	4.778704	-55.90484
307	4.737837	-71.18624
307.5	4.750602	-85.78974
308	4.785109	-103.2537
308.5	4.816543	-118.3099
309	4.867714	-133.1621
309.5	4.887553	-147.7427
310	4.974575	-162.5853
310.5	4.951241	-178.0564
311	5.061109	165.757
311.5	5.078992	149.7457
312	5.228162	135.582
312.5	5.318555	119.3544
313	5.268854	103.6142
313.5	5.312828	87.99706
314	5.281442	72.46992
314.5	5.422011	56.98423
315	5.534897	41.43472
315.5	5.536991	25.65701
316	5.453459	9.154145
316.5	5.521419	-5.298269
317	5.554646	-21.27013
317.5	5.593023	-37.00895
318	5.692331	-51.69792
318.5	5.658934	-67.01008
319	5.694792	-83.62508
319.5	5.748722	-99.20026
320	5.7956	-115.107
320.5	5.778205	-131.1926
321	5.77135	-145.3979
321.5	5.753073	-160.9397
322	5.737722	-176.5376
322.5	5.882903	167.3877
323	5.904634	151.5106
323.5	5.895345	136.0091
324	5.826809	121.5192
324.5	5.928585	106.5728
325	5.899035	89.85739
325.5	5.950242	74.03646
326	6.023697	58.03936
326.5	5.928399	43.39334
327	5.983887	28.25504
327.5	5.984601	12.6047
328	5.955154	-3.015536
328.5	5.933897	-18.94055
329	6.086721	-33.50104
329.5	6.039829	-49.25754
330	6.012217	-64.24583
330.5	6.105114	-80.41836
331	5.987258	-95.85231
331.5	6.035603	-111.1373
332	6.128701	-126.1797
332.5	6.124684	-141.2738
333	6.081348	-157.2942
333.5	6.194068	-172.7387
334	6.141861	170.4858
334.5	6.080253	156.0301
335	6.230217	140.9594
335.5	6.148143	125.0833
336	6.084736	109.148
336.5	6.037167	93.66019
337	6.12535	78.7427
337.5	6.146754	63.36414
338	6.202229	48.51749
338.5	6.175726	32.20936
339	6.040239	17.06472
339.5	6.075666	1.001227
340	6.071585	-14.4545
340.5	6.064154	-28.95394
341	5.987789	-44.0737
341.5	6.057836	-58.10725
342	6.059615	-74.02935
342.5	6.079071	-89.96149
343	6.185618	-105.9759
343.5	6.063298	-120.9587
344	6.043173	-136.1036
344.5	6.018866	-151.0472
345	5.995787	-166.1991
345.5	6.00899	178.0938
346	6.092875	162.9444
346.5	6.004182	147.489
347	5.93623	133.5318
347.5	6.086375	118.0521
348	6.083076	102.1968
348.5	6.097973	86.56886
349	6.083689	71.31623
349.5	6.091276	56.99366
350	6.054879	41.67662
