Source File Name:	7,1
Signal:	FFT - Vib Velocity - Mag. & Phase

Frequency	Magnitude	Phase
[ Hz ]	[ m/s ]	[ ° ]
10	20.52574	-16.84955
10.5	21.08787	-32.31864
11	21.59903	-52.55603
11.5	21.83427	-65.48366
12	23.12704	-84.19024
12.5	23.88256	-103.6713
13	28.37295	-119.8837
13.5	29.13519	-143.1277
14	28.08624	-160.5807
14.5	30.19103	176.4269
15	32.49701	156.3252
15.5	32.46874	137.3898
16	35.50465	113.7035
16.5	36.3308	90.778
17	38.13723	65.79926
17.5	39.4004	39.86504
18	38.7938	12.5539
18.5	36.23589	-8.891438
19	34.27111	-41.38876
19.5	28.9008	-63.86051
20	25.2302	-85.53193
20.5	21.33592	-107.3813
21	19.70517	-120.9925
21.5	17.34885	-140.4607
22	19.00732	-158.2091
22.5	15.51839	-175.2974
23	13.59901	171.9992
23.5	13.61343	151.0416
24	13.50891	133.6291
24.5	12.58743	114.7037
25	11.76365	99.28616
25.5	11.05452	81.67245
26	10.79055	63.03091
26.5	10.02246	47.92341
27	9.758675	30.82104
27.5	9.064916	14.70554
28	8.81002	-1.875196
28.5	8.313066	-17.55487
29	7.843092	-33.5526
29.5	7.420775	-50.02703
30	7.248835	-63.94922
30.5	6.930967	-79.67101
31	6.937263	-93.02593
31.5	6.693456	-111.8
32	6.447062	-125.5749
32.5	6.350853	-141.2051
33	6.27395	-154.6721
33.5	6.109285	-172.133
34	5.880071	170.9128
34.5	5.855204	156.3353
35	5.460334	143.3901
35.5	5.562268	129.6334
36	5.541267	111.9602
36.5	5.490003	99.16326
37	5.560566	87.13016
37.5	5.448702	70.81761
38	5.530549	56.58851
38.5	5.665391	40.13451
39	5.572239	26.21704
39.5	5.801607	7.418314
40	5.91784	-7.934027
40.5	5.918738	-22.31347
41	5.983082	-40.37226
41.5	6.011009	-55.97461
42	6.005272	-72.44621
42.5	5.897674	-88.40063
43	5.700568	-105.48
43.5	5.71694	-119.9706
44	5.63548	-136.0593
44.5	5.625288	-152.3567
45	5.680484	-167.8851
45.5	5.566642	175.9255
46	5.442557	162.688
46.5	5.705361	145.7704
47	5.420154	130.9943
47.5	5.374259	115.5465
48	5.579755	98.08492
48.5	5.233754	82.56382
49	5.194846	75.25676
49.5	5.089834	54.17537
50	5.401561	36.9987
50.5	5.35157	21.87459
51	4.983526	6.513047
51.5	4.999284	-7.945573
52	5.167695	-21.93629
52.5	4.881963	-36.51454
53	5.022205	-53.67563
53.5	5.215972	-67.74874
54	5.130573	-85.4029
54.5	5.046124	-96.43972
55	5.257838	-116.3794
55.5	4.948781	-130.5341
56	5.047256	-143.1055
56.5	4.955001	-160.2744
57	4.939528	-174.5694
57.5	4.908512	169.4812
58	4.863964	153.4165
58.5	4.937208	138.8829
59	4.945148	124.393
59.5	4.93706	108.6286
60	4.946012	92.51022
60.5	4.9943	78.51616
61	4.778583	62.77381
61.5	4.728699	46.7469
62	4.531306	32.20684
62.5	4.552753	20.0268
63	4.654537	3.604153
63.5	4.810934	-12.50526
64	4.770327	-27.28964
64.5	4.737737	-41.42015
65	4.706166	-58.71129
65.5	4.57373	-74.13199
66	4.472603	-86.6225
66.5	4.343077	-101.6331
67	4.545584	-117.3177
67.5	4.495836	-132.5904
68	4.339365	-149.5127
68.5	4.296801	-162.6775
69	4.46374	-176.7352
69.5	4.351753	170.0831
70	4.333817	155.2151
70.5	4.439109	137.9165
71	4.193053	123.5177
71.5	4.243524	108.6007
72	4.107545	92.37125
72.5	4.001687	79.75367
73	4.04043	66.09994
73.5	4.100672	51.09155
74	4.385848	36.62095
74.5	4.133413	20.78881
75	4.053161	7.810771
75.5	3.900791	-6.862109
76	4.023027	-20.14557
76.5	3.955361	-35.07317
77	4.100535	-51.02286
77.5	4.2873	-67.10609
78	4.097632	-81.51799
78.5	4.116936	-98.95312
79	3.829223	-113.7781
79.5	3.872655	-122.8904
80	3.84828	-137.1059
80.5	3.808027	-152.6645
81	3.951498	-167.1799
81.5	3.83862	178.6911
82	4.006133	162.7542
82.5	3.958243	145.1517
83	3.849587	134.1023
83.5	3.761095	121.5227
84	3.928924	106.4789
84.5	3.956279	91.5454
85	3.918776	77.96526
85.5	3.850012	62.68168
86	3.879756	47.25662
86.5	3.934947	33.42677
87	3.855179	16.84885
87.5	3.949463	2.519145
88	4.067322	-10.28036
88.5	3.90315	-26.05581
89	3.825682	-40.06211
89.5	3.893314	-54.79547
90	3.812611	-69.21269
90.5	3.726292	-84.02141
91	3.740222	-98.45309
91.5	3.855572	-112.6564
92	3.802508	-129.0317
92.5	3.683177	-144.1846
93	3.787499	-156.7696
93.5	3.698865	-168.4023
94	3.611491	175.0329
94.5	3.510819	161.8303
95	3.653758	150.0887
95.5	3.721211	132.3705
96	3.595112	115.9263
96.5	3.572216	101.2206
97	3.436259	89.65398
97.5	3.297748	74.24314
98	3.361956	63.41381
98.5	3.392883	52.27892
99	3.34364	38.64332
99.5	3.378483	24.20535
100	3.320796	7.016874
100.5	3.179264	-5.310613
101	3.109173	-20.38277
101.5	3.065878	-31.25936
102	3.150977	-40.30489
102.5	3.093314	-54.69801
103	2.991593	-66.53991
103.5	3.166533	-77.03133
104	3.01912	-87.35004
104.5	2.983292	-97.44151
105	3.235944	-108.6474
105.5	3.283315	-120.4447
106	3.401644	-131.7741
106.5	3.648455	-142.7461
107	4.076554	-155.0655
107.5	4.163424	-164.1858
108	4.555726	-176.0829
108.5	5.027293	171.1052
109	5.688304	158.6504
109.5	6.1117	143.8892
110	6.750106	129.6453
110.5	7.512625	112.3029
111	7.923616	97.6526
111.5	8.718948	82.08084
112	9.584146	66.02215
112.5	10.5255	50.6411
113	11.44466	33.75513
113.5	12.40431	15.36927
114	13.29007	-2.767586
114.5	13.88679	-20.81649
115	14.74718	-38.83783
115.5	15.52727	-57.02737
116	16.26027	-75.03686
116.5	16.89799	-93.60271
117	17.57447	-111.769
117.5	18.10139	-129.7024
118	18.32819	-147.4912
118.5	19.00355	-165.0661
119	19.58902	176.5945
119.5	20.06305	158.7886
120	20.68828	140.529
120.5	21.35755	122.2355
121	21.82684	103.9728
121.5	22.10971	85.12224
122	22.56712	67.04367
122.5	23.13624	48.4848
123	23.34318	29.34513
123.5	23.64149	9.807763
124	24.05575	-9.593219
124.5	24.07949	-29.91446
125	24.0568	-50.29007
125.5	23.60125	-70.84757
126	22.80843	-91.47812
126.5	21.66271	-112.211
127	20.45391	-132.6204
127.5	19.013	-152.5578
128	17.16316	-172.4705
128.5	15.56565	169.4214
129	14.04801	152.3027
129.5	12.7291	136.1539
130	11.46764	119.8759
130.5	10.42519	105.7237
131	9.373375	91.24674
131.5	8.465536	76.91582
132	7.839217	63.47838
132.5	7.210687	51.06824
133	6.800163	39.5717
133.5	6.361764	25.16026
134	6.154861	15.97315
134.5	6.015665	3.557373
135	5.751025	-9.65297
135.5	5.648297	-20.90262
136	5.521012	-32.83262
136.5	5.36018	-45.37152
137	5.159597	-59.96174
137.5	5.237456	-71.9484
138	5.210157	-84.12718
138.5	5.209221	-98.26329
139	5.251694	-112.4236
139.5	5.082654	-125.6487
140	4.898493	-137.1039
140.5	4.955618	-151.255
141	4.908402	-162.9836
141.5	4.859196	-176.5017
142	4.684981	169.0156
142.5	4.645406	155.4491
143	4.642795	142.4985
143.5	4.431825	132.7401
144	4.797711	120.8553
144.5	4.901942	107.6977
145	4.89098	95.24425
145.5	4.953452	79.89934
146	4.846458	67.05919
146.5	4.837595	54.62467
147	4.700319	44.3208
147.5	5.042203	30.27369
148	5.223622	16.37031
148.5	5.304573	3.593841
149	5.41845	-9.74023
149.5	5.669121	-23.65884
150	5.620575	-35.75543
150.5	5.604532	-47.12334
151	5.921198	-62.06788
151.5	6.03117	-74.05129
152	6.322351	-87.36363
152.5	6.431981	-101.4335
153	6.833181	-115.085
153.5	7.092553	-128.6816
154	7.387859	-141.1508
154.5	7.89091	-155.7193
155	8.267849	-168.85
155.5	8.629632	176.8716
156	8.988588	162.3506
156.5	9.497787	146.7856
157	9.864864	132.9616
157.5	10.41432	118.6375
158	11.16793	103.5971
158.5	11.90335	88.94762
159	12.73964	73.69332
159.5	13.56464	57.47192
160	14.51978	41.43473
160.5	15.1796	25.04751
161	15.92015	8.367062
161.5	16.94272	-8.857169
162	17.72906	-25.78432
162.5	18.70548	-42.47394
163	19.79767	-60.28217
163.5	20.82616	-78.2875
164	21.50959	-96.06475
164.5	22.21157	-114.6375
165	22.87141	-132.6255
165.5	23.35117	-151.1806
166	23.50286	-169.4198
166.5	23.96607	172.3877
167	24.35191	154.285
167.5	24.41832	136.2649
168	24.55231	118.3333
168.5	24.62419	100.7291
169	24.50336	83.01358
169.5	24.46175	65.48085
170	24.58197	47.44887
170.5	24.36192	30.0427
171	24.37655	12.20758
171.5	24.26719	-5.79507
172	24.03807	-23.00566
172.5	23.89454	-40.67345
173	23.43628	-57.84231
173.5	23.51935	-75.02541
174	23.1366	-92.86333
174.5	22.88684	-110.8785
175	22.66529	-128.89
175.5	22.22515	-146.7004
176	21.63619	-164.7743
176.5	21.05477	177.4864
177	20.47388	160.3186
177.5	19.72511	142.9828
178	19.00391	125.5403
178.5	18.37804	108.7774
179	17.68643	91.57696
179.5	16.9972	74.21922
180	16.50427	56.9322
180.5	15.80552	40.43715
181	15.03776	23.28704
181.5	14.27798	6.930645
182	13.57505	-8.963861
182.5	12.88255	-24.83103
183	12.14862	-40.97505
183.5	11.62386	-56.71099
184	11.03209	-71.85203
184.5	10.50019	-88.09087
185	10.0276	-103.3234
185.5	9.617773	-117.0646
186	9.232703	-132.1362
186.5	8.75808	-146.9402
187	8.427401	-160.87
187.5	8.09057	-174.5809
188	7.835474	169.2207
188.5	7.564548	154.7863
189	7.377662	140.5141
189.5	7.063566	125.6471
190	6.970742	110.7187
190.5	6.867139	96.45519
191	6.528332	83.70673
191.5	6.559742	67.5025
192	6.186613	52.02113
192.5	6.010666	38.3482
193	5.705314	21.68282
193.5	5.505875	7.451478
194	5.523154	-7.353214
194.5	5.153763	-21.38212
195	5.040115	-36.61481
195.5	4.927712	-49.75793
196	4.80254	-63.903
196.5	4.456866	-77.81416
197	4.382437	-92.4511
197.5	4.169186	-107.0237
198	3.941857	-121.0892
198.5	3.888947	-136.1196
199	3.792532	-150.1839
199.5	3.644005	-162.9518
200	3.42439	-176.282
200.5	3.38784	170.7008
201	3.301579	159.2381
201.5	3.007987	144.8434
202	2.861906	134.5521
202.5	2.942115	122.5753
203	2.879573	108.6396
203.5	2.733663	92.65736
204	2.723359	80.63482
204.5	2.814191	72.56651
205	2.676573	58.82922
205.5	2.721248	47.57896
206	2.764976	34.56981
206.5	2.703123	24.60377
207	2.580963	7.787134
207.5	2.495205	-2.632736
208	2.582403	-10.88358
208.5	2.68767	-21.93368
209	3.030211	-37.01078
209.5	3.18077	-54.48765
210	3.241163	-65.85714
210.5	3.111233	-81.93201
211	3.085817	-94.28055
211.5	3.115225	-104.2278
212	3.172209	-116.3737
212.5	3.442556	-130.9542
213	3.615352	-147.5287
213.5	3.745827	-162.1613
214	3.693445	-178.6276
214.5	3.916134	167.3267
215	3.97811	154.8253
215.5	4.033402	141.4894
216	4.262199	126.3033
216.5	4.303222	110.5463
217	4.374604	96.14489
217.5	4.43592	77.67381
218	4.457359	63.53416
218.5	4.623281	50.92856
219	4.784468	35.01563
219.5	4.990653	19.14369
220	5.163519	4.129314
220.5	5.23448	-10.32644
221	5.318988	-29.11716
221.5	5.252321	-45.41312
222	5.142854	-59.04206
222.5	5.369785	-74.67937
223	5.604408	-91.78855
223.5	5.707061	-108.0533
224	5.685577	-121.9734
224.5	6.001915	-139.7086
225	5.958207	-157.5753
225.5	5.744367	-172.1897
226	5.727733	171.5865
226.5	5.756524	155.7823
227	5.93413	140.3509
227.5	5.960118	122.7021
228	6.140923	105.9547
228.5	6.20762	89.10639
229	6.07357	72.42348
229.5	5.904277	55.72326
230	5.897417	40.22463
230.5	5.924067	23.72478
231	5.627535	4.835764
231.5	5.69537	-10.36219
232	5.565243	-26.96372
232.5	5.535038	-43.1075
233	5.570785	-61.10177
233.5	5.382706	-77.13139
234	5.159648	-91.19597
234.5	5.0797	-108.7804
235	4.964194	-126.5807
235.5	4.636016	-141.7355
236	4.633154	-157.2986
236.5	4.580133	-176.4793
237	4.371744	167.7049
237.5	4.074561	153.5406
238	3.943752	138.0005
238.5	3.926018	124.9972
239	3.774763	109.2588
239.5	3.508493	94.60654
240	3.533052	76.884
240.5	3.362641	59.38401
241	3.030766	46.83412
241.5	3.152005	30.7119
242	3.003605	17.93423
242.5	2.947625	4.279479
243	2.784647	-12.34036
243.5	2.660749	-24.5539
244	2.548145	-36.06518
244.5	2.467361	-49.32566
245	2.513698	-67.39126
245.5	2.482555	-80.93197
246	2.475529	-96.78427
246.5	2.464452	-113.2455
247	2.557131	-128.6926
247.5	2.309793	-140.6409
248	2.228037	-153.2131
248.5	2.374703	-170.0705
249	2.273474	173.9848
249.5	2.177786	157.9922
250	2.027307	138.3419
250.5	2.165709	123.9537
251	2.017149	106.9319
251.5	1.916584	92.19223
252	1.994208	77.07866
252.5	1.836901	65.43114
253	1.813498	49.5131
253.5	1.583555	24.19101
254	1.493972	12.00687
254.5	1.361582	-2.284799
255	1.328288	-24.82779
255.5	1.195062	-43.4052
256	1.039865	-50.24574
256.5	1.013207	-61.84914
257	0.9512322	-81.56516
257.5	0.8399518	-84.35206
258	0.605762	-94.53216
258.5	0.5961514	-119.3012
259	0.5162716	-133.8048
259.5	0.4626228	-157.6114
260	0.2552604	-174.6577
260.5	0.2666571	165.0939
261	0.1909882	-137.2045
261.5	0.3360039	-114.5016
262	0.3321351	-133.5135
262.5	0.5861932	-143.0938
263	0.6063516	-155.1058
263.5	0.6122766	-167.1312
264	0.27736	177.644
264.5	0.5479196	-172.7895
265	0.6810294	162.0081
265.5	0.6336218	146.6333
266	0.7792698	120.259
266.5	0.8058205	111.7071
267	0.8555606	107.9072
267.5	0.8307208	91.05071
268	1.045773	79.30132
268.5	1.002963	69.71358
269	1.031273	56.62508
269.5	1.035291	36.21005
270	1.141939	19.95501
270.5	1.135337	2.065781
271	1.163849	-14.22411
271.5	1.39645	-27.79852
272	1.292597	-40.06257
272.5	1.355644	-49.95269
273	1.473385	-69.23811
273.5	1.449488	-82.9175
274	1.373415	-95.35423
274.5	1.348316	-114.8894
275	1.475107	-127.2122
275.5	1.474386	-144.525
276	1.531964	-155.3789
276.5	1.858699	-174.3132
277	1.840444	168.9949
277.5	1.511453	157.7703
278	1.524673	144.6293
278.5	1.668215	137.7765
279	1.765061	122.3609
279.5	1.783648	104.5032
280	1.995685	85.0863
280.5	2.060607	66.08114
281	1.850505	52.6549
281.5	1.965574	36.82393
282	2.066445	29.31571
282.5	2.083555	15.5992
283	2.069278	0.6775023
283.5	2.242323	-19.3449
284	2.088882	-36.91089
284.5	1.981455	-49.75197
285	2.134584	-65.85522
285.5	2.170038	-77.02422
286	2.273571	-90.57488
286.5	2.350574	-104.6952
287	2.614248	-119.62
287.5	2.583461	-135.2729
288	2.462473	-152.7967
288.5	2.476266	-170.1068
289	2.468742	175.7342
289.5	2.476622	158.7871
290	2.519053	145.7604
290.5	2.806727	131.9382
291	2.823503	117.1862
291.5	2.795775	98.92281
292	2.850057	84.00667
292.5	2.808942	70.03008
293	2.643116	55.51932
293.5	2.712047	38.80219
294	2.955764	23.96499
294.5	2.941345	6.363239
295	3.021901	-11.27641
295.5	3.04899	-27.10069
296	2.935712	-39.61475
296.5	2.849964	-53.71648
297	2.795344	-70.72971
297.5	2.867096	-81.31536
298	2.875324	-97.38046
298.5	2.963381	-116.0459
299	3.006986	-131.9294
299.5	2.986778	-149.0588
300	2.974929	-161.2061
300.5	3.106697	-179.3186
301	2.910453	169.333
301.5	2.887423	155.8442
302	2.886235	137.7164
302.5	2.886561	122.7962
303	2.768481	106.5597
303.5	2.683406	93.13251
304	2.840018	78.98338
304.5	2.936587	68.04018
305	3.030208	51.18233
305.5	3.137658	34.93286
306	3.156404	20.55013
306.5	2.904816	5.548444
307	2.8353	-8.795029
307.5	2.95895	-28.13996
308	2.809267	-38.20247
308.5	2.962571	-54.88101
309	3.04512	-70.52801
309.5	3.143331	-83.74055
310	3.049001	-98.34508
310.5	3.059796	-113.2752
311	3.107632	-127.9307
311.5	3.084496	-139.4672
312	3.121528	-157.3743
312.5	3.203094	-176.1808
313	3.174495	168.3904
313.5	3.162506	154.0381
314	3.237134	137.9327
314.5	3.223727	124.7818
315	3.070863	113.161
315.5	3.253987	99.44044
316	3.346675	81.5852
316.5	3.32431	66.55091
317	3.280889	50.30017
317.5	3.304673	30.75519
318	3.333484	17.70091
318.5	3.278115	1.870591
319	3.349313	-12.13376
319.5	3.460058	-27.07416
320	3.314509	-40.81108
320.5	3.185234	-56.89164
321	3.220595	-74.59886
321.5	3.190928	-88.82474
322	2.918187	-102.5751
322.5	3.18521	-115.915
323	3.301431	-132.7637
323.5	3.329881	-144.774
324	3.385572	-161.9138
324.5	3.46102	-178.1022
325	3.302258	168.4171
325.5	3.102744	153.4062
326	3.186707	137.9845
326.5	3.208801	120.6334
327	3.250731	108.4475
327.5	3.308989	90.8649
328	3.321214	74.81821
328.5	3.316027	62.95142
329	3.228168	47.11857
329.5	3.305731	33.69222
330	3.33278	18.85979
330.5	3.255258	3.961354
331	3.286407	-14.89836
331.5	3.345665	-33.21343
332	3.170064	-47.12781
332.5	3.121819	-61.68478
333	3.17666	-74.71369
333.5	3.249021	-86.91541
334	3.097025	-101.7491
334.5	3.210495	-117.9937
335	3.234639	-133.4866
335.5	3.067144	-147.9349
336	3.097462	-164.8015
336.5	3.125143	177.6138
337	3.217731	165.6741
337.5	3.157377	148.8262
338	3.059502	133.9111
338.5	3.078573	123.4596
339	2.94208	111.4681
339.5	3.042506	95.05058
340	3.013217	78.09715
340.5	3.159041	66.28008
341	3.117739	48.04081
341.5	3.218619	30.34099
342	3.108788	15.9112
342.5	3.162582	5.98811
343	3.319039	-11.66857
343.5	3.145089	-26.59463
344	3.155605	-37.23723
344.5	3.024052	-54.56203
345	3.34359	-70.84006
345.5	3.33539	-89.42478
346	3.206044	-104.5357
346.5	3.239578	-120.4515
347	3.22538	-134.5875
347.5	3.2112	-146.0167
348	3.119762	-161.8526
348.5	3.327742	-175.7129
349	3.230032	170.339
349.5	3.165449	151.5884
350	3.16203	134.7569
