Source File Name:	7,3
Signal:	FFT - Ref1 Force - Mag. & Phase

Frequency	Magnitude	Phase
[ Hz ]	[ N ]	[ ° ]
10	0.0001134262	65.78996
10.5	0.0001145036	50.02272
11	0.0001140539	35.27176
11.5	0.0001151343	21.07582
12	0.0001152449	5.731132
12.5	0.0001151681	-8.259198
13	0.0001165525	-23.47116
13.5	0.0001159358	-37.54441
14	0.0001166588	-51.65988
14.5	0.0001168033	-66.78627
15	0.0001165837	-80.69124
15.5	0.0001169827	-95.41235
16	0.00011654	-109.6454
16.5	0.0001164714	-124.3769
17	0.0001164778	-138.9099
17.5	0.0001159454	-153.5656
18	0.0001154021	-167.8767
18.5	0.0001156389	177.4045
19	0.0001150694	162.6963
19.5	0.0001147909	147.9428
20	0.0001151664	133.3244
20.5	0.0001149107	118.6731
21	0.0001146446	103.9659
21.5	0.0001145997	89.09253
22	0.0001145889	74.18661
22.5	0.0001144607	59.58292
23	0.0001146302	45.03576
23.5	0.0001145982	30.15943
24	0.0001147249	15.60829
24.5	0.000114338	0.9799045
25	0.0001148095	-13.68603
25.5	0.0001147495	-28.30867
26	0.0001151345	-42.92352
26.5	0.0001149471	-57.34378
27	0.0001147098	-72.08171
27.5	0.0001145609	-86.54946
28	0.0001149804	-101.1514
28.5	0.000114741	-115.953
29	0.0001143084	-130.3682
29.5	0.0001147218	-145.0825
30	0.0001142862	-159.7859
30.5	0.0001139617	-174.2186
31	0.0001141809	170.7968
31.5	0.0001135411	156.3226
32	0.0001135409	141.7059
32.5	0.000113284	126.8268
33	0.0001132915	112.4655
33.5	0.0001131584	97.50816
34	0.0001126967	83.00321
34.5	0.0001129219	68.14383
35	0.0001126991	53.5806
35.5	0.0001129794	38.78101
36	0.0001128141	24.07283
36.5	0.0001125862	9.429517
37	0.0001126417	-5.216287
37.5	0.0001125446	-19.93071
38	0.0001127334	-34.56892
38.5	0.0001128361	-49.20984
39	0.000112671	-63.6204
39.5	0.0001125921	-78.31036
40	0.0001123431	-92.89603
40.5	0.0001125157	-107.5667
41	0.0001120546	-122.0923
41.5	0.0001119915	-136.6944
42	0.0001115584	-151.443
42.5	0.0001115503	-165.9702
43	0.0001114861	179.2999
43.5	0.0001110399	164.6019
44	0.0001111468	149.9807
44.5	0.0001109084	135.2313
45	0.0001105263	120.6508
45.5	0.0001107622	105.9763
46	0.0001096449	91.09895
46.5	0.0001101361	76.59016
47	0.0001101663	61.72682
47.5	0.0001099148	47.26087
48	0.0001099912	32.55413
48.5	0.0001096338	17.85721
49	0.0001095535	3.264657
49.5	0.0001098007	-11.53763
50	0.000109645	-26.11129
50.5	0.0001095134	-40.70736
51	0.0001091403	-55.40239
51.5	0.0001092397	-70.01503
52	0.0001090943	-84.70367
52.5	0.0001088351	-99.22676
53	0.0001089419	-113.8452
53.5	0.0001087046	-128.3405
54	0.0001084953	-143.1299
54.5	0.0001081219	-157.6874
55	0.0001081907	-172.3977
55.5	0.0001076862	172.9319
56	0.0001076115	158.4186
56.5	0.0001076177	143.6344
57	0.0001071939	128.986
57.5	0.0001070553	114.3137
58	0.0001067831	99.49265
58.5	0.0001065271	84.88538
59	0.0001066097	70.16115
59.5	0.0001064945	55.42467
60	0.0001061386	40.9601
60.5	0.0001061113	26.21777
61	0.0001057794	11.7481
61.5	0.000105822	-3.061821
62	0.0001054224	-17.78154
62.5	0.0001054776	-32.28955
63	0.0001053726	-47.08874
63.5	0.0001053367	-61.54507
64	0.0001052374	-76.30387
64.5	0.0001045112	-90.87144
65	0.000104607	-105.43
65.5	0.0001044115	-120.1516
66	0.0001041711	-134.7727
66.5	0.0001038865	-149.4249
67	0.0001037883	-163.9936
67.5	0.0001032921	-178.6841
68	0.0001031846	166.8124
68.5	0.0001026746	151.9236
69	0.000102536	137.355
69.5	0.000102519	122.6399
70	0.000102547	107.9774
70.5	0.0001019942	93.42843
71	0.0001020596	78.7155
71.5	0.0001018334	64.14534
72	0.0001015474	49.32981
72.5	0.0001015375	34.73888
73	0.0001011612	20.0558
73.5	0.0001012768	5.542904
74	0.000100825	-9.358281
74.5	0.000100651	-23.72575
75	0.0001007375	-38.47446
75.5	0.0001003841	-53.14183
76	0.0001003467	-67.65554
76.5	9.995889e-5	-82.22083
77	9.975077e-5	-96.83106
77.5	9.951591e-5	-111.4692
78	9.949342e-5	-126.2163
78.5	9.891747e-5	-140.8402
79	9.894572e-5	-155.3323
79.5	9.870597e-5	-170.0633
80	9.820622e-5	175.353
80.5	9.804289e-5	160.6344
81	9.782529e-5	146.054
81.5	9.759712e-5	131.3626
82	9.738438e-5	116.6253
82.5	9.711618e-5	101.9664
83	9.693321e-5	87.36713
83.5	9.681965e-5	72.6318
84	9.657168e-5	58.07075
84.5	9.643834e-5	43.39324
85	9.603064e-5	28.75835
85.5	9.606793e-5	14.12566
86	9.568263e-5	-0.4038423
86.5	9.566289e-5	-15.12738
87	9.532783e-5	-29.70885
87.5	9.519749e-5	-44.42357
88	9.485974e-5	-59.01618
88.5	9.466506e-5	-73.68517
89	9.442111e-5	-88.36765
89.5	9.41547e-5	-102.9387
90	9.3973e-5	-117.6727
90.5	9.366999e-5	-132.1538
91	9.343261e-5	-146.7747
91.5	9.328296e-5	-161.4656
92	9.277226e-5	-176.1156
92.5	9.270536e-5	169.2773
93	9.241065e-5	154.586
93.5	9.225665e-5	140.0225
94	9.215003e-5	125.2381
94.5	9.164446e-5	110.6713
95	9.140922e-5	96.05617
95.5	9.130717e-5	81.23592
96	9.107855e-5	66.7957
96.5	9.085331e-5	52.04386
97	9.053754e-5	37.43185
97.5	9.026968e-5	22.82555
98	9.038683e-5	8.155294
98.5	8.980912e-5	-6.43625
99	8.954659e-5	-21.07234
99.5	8.942182e-5	-35.80868
100	8.913877e-5	-50.29155
100.5	8.90049e-5	-64.92281
101	8.867176e-5	-79.41528
101.5	8.838527e-5	-94.14047
102	8.815894e-5	-108.6932
102.5	8.809066e-5	-123.3389
103	8.769005e-5	-137.9573
103.5	8.750779e-5	-152.61
104	8.716196e-5	-167.297
104.5	8.670499e-5	178.1752
105	8.660982e-5	163.4503
105.5	8.626125e-5	148.9362
106	8.610936e-5	134.2105
106.5	8.563618e-5	119.5264
107	8.574245e-5	104.8915
107.5	8.532049e-5	90.36931
108	8.487989e-5	75.61786
108.5	8.472999e-5	61.0945
109	8.444682e-5	46.37635
109.5	8.413766e-5	31.83184
110	8.413858e-5	17.03572
110.5	8.376019e-5	2.470018
111	8.359761e-5	-12.05118
111.5	8.341273e-5	-26.75132
112	8.318494e-5	-41.31455
112.5	8.30086e-5	-55.98549
113	8.26726e-5	-70.52216
113.5	8.239502e-5	-85.23792
114	8.211088e-5	-99.71029
114.5	8.183642e-5	-114.445
115	8.161465e-5	-128.9976
115.5	8.147923e-5	-143.6708
116	8.096623e-5	-158.1996
116.5	8.06367e-5	-172.9052
117	8.047331e-5	172.5511
117.5	8.007166e-5	157.8827
118	7.977501e-5	143.2959
118.5	7.964239e-5	128.6441
119	7.919372e-5	113.9898
119.5	7.907567e-5	99.3712
120	7.895072e-5	84.6153
120.5	7.865597e-5	70.09934
121	7.842667e-5	55.5528
121.5	7.810253e-5	40.94798
122	7.793886e-5	26.24329
122.5	7.76469e-5	11.61911
123	7.753149e-5	-3.053874
123.5	7.73509e-5	-17.58887
124	7.689661e-5	-32.16322
124.5	7.670451e-5	-46.78436
125	7.640112e-5	-61.41289
125.5	7.618983e-5	-75.99421
126	7.586971e-5	-90.56123
126.5	7.558933e-5	-105.014
127	7.528349e-5	-119.6969
127.5	7.501127e-5	-134.2959
128	7.481055e-5	-148.8861
128.5	7.42652e-5	-163.4925
129	7.429922e-5	-178.2095
129.5	7.380519e-5	167.3352
130	7.357434e-5	152.5484
130.5	7.326466e-5	138.0401
131	7.310013e-5	123.4367
131.5	7.26865e-5	108.7153
132	7.260002e-5	94.14378
132.5	7.237025e-5	79.5234
133	7.196447e-5	64.92903
133.5	7.186689e-5	50.0999
134	7.156553e-5	35.71705
134.5	7.143087e-5	20.93819
135	7.097112e-5	6.467206
135.5	7.078407e-5	-8.078865
136	7.041917e-5	-22.83051
136.5	7.027046e-5	-37.369
137	7.003616e-5	-51.95238
137.5	6.974705e-5	-66.38819
138	6.95366e-5	-81.18142
138.5	6.917295e-5	-95.60923
139	6.895267e-5	-110.3221
139.5	6.864853e-5	-124.7224
140	6.843059e-5	-139.4163
140.5	6.817426e-5	-153.9152
141	6.77904e-5	-168.6387
141.5	6.754706e-5	176.84
142	6.730205e-5	162.1892
142.5	6.687947e-5	147.4817
143	6.672477e-5	132.8356
143.5	6.634226e-5	118.1479
144	6.623813e-5	103.71
144.5	6.591588e-5	88.9388
145	6.564879e-5	74.4801
145.5	6.536817e-5	59.77307
146	6.516238e-5	45.4339
146.5	6.490507e-5	30.73168
147	6.45738e-5	15.94077
147.5	6.435985e-5	1.454741
148	6.423199e-5	-13.254
148.5	6.39844e-5	-27.72706
149	6.368079e-5	-42.32901
149.5	6.358152e-5	-56.76481
150	6.323082e-5	-71.49143
150.5	6.300468e-5	-86.04353
151	6.27717e-5	-100.602
151.5	6.236833e-5	-115.0399
152	6.206722e-5	-129.7076
152.5	6.181859e-5	-144.2889
153	6.161063e-5	-158.8902
153.5	6.113147e-5	-173.582
154	6.105291e-5	172.0282
154.5	6.067453e-5	157.3614
155	6.044446e-5	142.8463
155.5	6.017566e-5	128.1774
156	5.997406e-5	113.5599
156.5	5.978992e-5	98.87855
157	5.94942e-5	84.45685
157.5	5.909549e-5	69.91869
158	5.884499e-5	55.11597
158.5	5.875947e-5	40.56577
159	5.864458e-5	26.10232
159.5	5.826811e-5	11.58171
160	5.791632e-5	-3.095509
160.5	5.791365e-5	-17.68205
161	5.76173e-5	-32.43628
161.5	5.744634e-5	-46.81055
162	5.722836e-5	-61.13197
162.5	5.678096e-5	-75.75733
163	5.645986e-5	-90.36441
163.5	5.631328e-5	-104.9269
164	5.607146e-5	-119.5198
164.5	5.571534e-5	-134.0045
165	5.555529e-5	-148.662
165.5	5.513351e-5	-163.2897
166	5.506484e-5	-177.6795
166.5	5.481614e-5	167.7188
167	5.446889e-5	153.0527
167.5	5.410294e-5	138.5898
168	5.399978e-5	123.9146
168.5	5.37721e-5	109.3056
169	5.338342e-5	94.67451
169.5	5.342083e-5	80.19559
170	5.301626e-5	65.53586
170.5	5.288803e-5	50.97766
171	5.241915e-5	36.27117
171.5	5.224859e-5	21.86957
172	5.20568e-5	7.258992
172.5	5.183088e-5	-7.214481
173	5.152831e-5	-21.79241
173.5	5.13299e-5	-36.31925
174	5.106198e-5	-50.77825
174.5	5.112649e-5	-65.3356
175	5.069903e-5	-79.9348
175.5	5.049142e-5	-94.30695
176	5.032366e-5	-109.0731
176.5	5.014296e-5	-123.5103
177	4.974744e-5	-137.9629
177.5	4.946962e-5	-152.6076
178	4.899243e-5	-167.3044
178.5	4.896898e-5	178.2838
179	4.869747e-5	163.5025
179.5	4.847877e-5	149.052
180	4.823156e-5	134.5995
180.5	4.792808e-5	119.9985
181	4.761944e-5	105.593
181.5	4.751266e-5	91.04541
182	4.716549e-5	76.29729
182.5	4.690034e-5	61.70104
183	4.690864e-5	47.32143
183.5	4.65559e-5	32.70472
184	4.644243e-5	18.13931
184.5	4.629673e-5	3.482682
185	4.601038e-5	-10.97908
185.5	4.593188e-5	-25.51978
186	4.556964e-5	-39.97395
186.5	4.538615e-5	-54.40443
187	4.509145e-5	-69.13526
187.5	4.488371e-5	-83.37294
188	4.458736e-5	-98.03542
188.5	4.4415e-5	-112.7467
189	4.41065e-5	-127.1868
189.5	4.388985e-5	-141.7291
190	4.36314e-5	-156.2812
190.5	4.344326e-5	-170.5474
191	4.329307e-5	174.8668
191.5	4.292727e-5	160.2805
192	4.27502e-5	145.6616
192.5	4.261707e-5	131.1546
193	4.232651e-5	116.5318
193.5	4.209708e-5	101.9169
194	4.186921e-5	87.28531
194.5	4.159943e-5	72.81567
195	4.152296e-5	58.34694
195.5	4.137268e-5	43.72461
196	4.121301e-5	29.53434
196.5	4.084361e-5	14.77428
197	4.071953e-5	0.1382648
197.5	4.061374e-5	-14.16564
198	4.040675e-5	-28.69374
198.5	4.004819e-5	-43.14717
199	3.996632e-5	-57.84827
199.5	3.977721e-5	-72.18911
200	3.954407e-5	-86.67793
200.5	3.940813e-5	-101.2625
201	3.906792e-5	-115.8038
201.5	3.885858e-5	-130.0982
202	3.863073e-5	-144.6429
202.5	3.846415e-5	-159.1186
203	3.821226e-5	-173.7818
203.5	3.789956e-5	171.5489
204	3.784078e-5	157.3742
204.5	3.776227e-5	142.6064
205	3.718935e-5	128.2729
205.5	3.705539e-5	113.2978
206	3.689716e-5	99.08936
206.5	3.681198e-5	84.68767
207	3.662484e-5	69.88444
207.5	3.634632e-5	55.35496
208	3.618552e-5	40.95125
208.5	3.613457e-5	26.49094
209	3.60427e-5	11.99539
209.5	3.562783e-5	-2.550899
210	3.547546e-5	-17.21985
210.5	3.532649e-5	-31.32016
211	3.515529e-5	-45.83121
211.5	3.504317e-5	-60.29126
212	3.467207e-5	-74.73491
212.5	3.455032e-5	-89.42117
213	3.443092e-5	-103.645
213.5	3.430789e-5	-118.337
214	3.396708e-5	-132.9564
214.5	3.373931e-5	-147.3391
215	3.373029e-5	-161.4514
215.5	3.345443e-5	-176.2844
216	3.320218e-5	169.3042
216.5	3.297243e-5	154.5529
217	3.275539e-5	139.82
217.5	3.282968e-5	125.9139
218	3.247255e-5	110.9627
218.5	3.22207e-5	96.65793
219	3.214385e-5	81.94456
219.5	3.188429e-5	67.65482
220	3.181579e-5	53.09268
220.5	3.17874e-5	38.63728
221	3.146176e-5	24.17914
221.5	3.152543e-5	9.745453
222	3.125305e-5	-4.744639
222.5	3.103181e-5	-19.07331
223	3.078906e-5	-33.85825
223.5	3.080724e-5	-48.31622
224	3.062476e-5	-62.54396
224.5	3.044251e-5	-76.81155
225	3.022313e-5	-91.37094
225.5	2.997159e-5	-105.85
226	2.974774e-5	-120.5827
226.5	2.967759e-5	-135.1813
227	2.962185e-5	-149.3416
227.5	2.942095e-5	-163.9615
228	2.914261e-5	-178.4076
228.5	2.898311e-5	167.2121
229	2.882969e-5	152.7064
229.5	2.854497e-5	138.2227
230	2.844392e-5	123.8072
230.5	2.832783e-5	109.1832
231	2.818464e-5	94.66206
231.5	2.807701e-5	79.9477
232	2.80459e-5	65.77625
232.5	2.778237e-5	51.38272
233	2.761193e-5	36.79612
233.5	2.753604e-5	22.56772
234	2.731727e-5	7.98694
234.5	2.718193e-5	-6.440273
235	2.721922e-5	-20.96864
235.5	2.693962e-5	-35.40224
236	2.668334e-5	-49.82614
236.5	2.666417e-5	-64.30258
237	2.652217e-5	-78.78373
237.5	2.631995e-5	-93.2674
238	2.613661e-5	-107.5438
238.5	2.598304e-5	-121.7113
239	2.578547e-5	-136.399
239.5	2.556302e-5	-150.7165
240	2.547189e-5	-165.4793
240.5	2.536939e-5	-179.6578
241	2.524295e-5	165.48
241.5	2.510985e-5	150.9693
242	2.492514e-5	136.4555
242.5	2.486747e-5	122.3877
243	2.465518e-5	108.1689
243.5	2.459356e-5	93.42145
244	2.437918e-5	78.78013
244.5	2.426575e-5	64.66503
245	2.411833e-5	49.89005
245.5	2.41531e-5	35.38476
246	2.394584e-5	21.38307
246.5	2.367418e-5	6.874948
247	2.362584e-5	-7.696605
247.5	2.352716e-5	-22.13992
248	2.33675e-5	-36.7356
248.5	2.32819e-5	-51.14748
249	2.324468e-5	-65.15089
249.5	2.298452e-5	-79.91482
250	2.292378e-5	-94.27087
250.5	2.2747e-5	-108.5508
251	2.261515e-5	-123.0394
251.5	2.251375e-5	-137.2534
252	2.221514e-5	-152.0074
252.5	2.214384e-5	-166.3506
253	2.20994e-5	179.36
253.5	2.192478e-5	164.7398
254	2.170997e-5	150.238
254.5	2.172024e-5	135.8485
255	2.157311e-5	121.4436
255.5	2.142613e-5	106.9291
256	2.131742e-5	92.70118
256.5	2.121412e-5	78.37804
257	2.107664e-5	63.6712
257.5	2.111963e-5	48.88863
258	2.083066e-5	34.4589
258.5	2.072623e-5	20.41798
259	2.065774e-5	5.576501
259.5	2.07132e-5	-8.806848
260	2.048238e-5	-22.78529
260.5	2.051916e-5	-37.06751
261	2.016314e-5	-51.45911
261.5	2.001158e-5	-66.05157
262	2.000486e-5	-80.2206
262.5	1.991476e-5	-94.93066
263	1.976218e-5	-109.1552
263.5	1.955895e-5	-123.4342
264	1.937885e-5	-138.0212
264.5	1.933975e-5	-152.1568
265	1.926984e-5	-166.8932
265.5	1.906826e-5	178.7716
266	1.905896e-5	163.8543
266.5	1.900731e-5	149.7002
267	1.8833e-5	135.0828
267.5	1.86313e-5	120.8276
268	1.833875e-5	106.7415
268.5	1.842735e-5	91.74072
269	1.835321e-5	77.7131
269.5	1.823781e-5	62.91816
270	1.826207e-5	48.70268
270.5	1.818339e-5	34.1698
271	1.793713e-5	19.8146
271.5	1.805988e-5	5.246928
272	1.776082e-5	-8.841539
272.5	1.779161e-5	-22.92331
273	1.767762e-5	-37.70205
273.5	1.757125e-5	-51.93928
274	1.730112e-5	-66.28924
274.5	1.740263e-5	-81.09494
275	1.716745e-5	-94.95666
275.5	1.707675e-5	-109.6615
276	1.688221e-5	-123.6573
276.5	1.684845e-5	-138.367
277	1.665772e-5	-152.6215
277.5	1.662906e-5	-167.4434
278	1.664949e-5	178.2207
278.5	1.643149e-5	164.0918
279	1.646783e-5	149.231
279.5	1.638097e-5	135.1346
280	1.628837e-5	120.7855
280.5	1.606831e-5	106.2329
281	1.591626e-5	91.67801
281.5	1.590654e-5	76.9282
282	1.58591e-5	62.49635
282.5	1.57558e-5	48.30096
283	1.574017e-5	34.01424
283.5	1.573175e-5	20.2735
284	1.55087e-5	5.303801
284.5	1.544223e-5	-8.931328
285	1.540018e-5	-23.24543
285.5	1.533853e-5	-37.32028
286	1.512911e-5	-51.7226
286.5	1.493749e-5	-66.40411
287	1.493688e-5	-80.31396
287.5	1.483019e-5	-95.49398
288	1.465337e-5	-109.2344
288.5	1.46673e-5	-123.8936
289	1.46072e-5	-138.2614
289.5	1.445668e-5	-152.3354
290	1.44604e-5	-167.0586
290.5	1.436948e-5	178.6118
291	1.413465e-5	164.1421
291.5	1.400805e-5	149.613
292	1.409621e-5	135.0957
292.5	1.394829e-5	120.8664
293	1.386296e-5	106.3206
293.5	1.406398e-5	91.9943
294	1.374057e-5	77.88302
294.5	1.371026e-5	63.72749
295	1.363721e-5	48.5687
295.5	1.350146e-5	34.64336
296	1.339795e-5	19.83152
296.5	1.337775e-5	5.56632
297	1.341392e-5	-8.341176
297.5	1.316959e-5	-22.62519
298	1.324157e-5	-37.32755
298.5	1.307766e-5	-51.51297
299	1.301688e-5	-65.79681
299.5	1.289744e-5	-80.54232
300	1.283155e-5	-95.10355
300.5	1.279172e-5	-109.6193
301	1.259471e-5	-123.1209
301.5	1.255178e-5	-138.4621
302	1.249031e-5	-152.5574
302.5	1.249564e-5	-166.6623
303	1.23886e-5	179.1286
303.5	1.222428e-5	164.3401
304	1.218899e-5	150.3915
304.5	1.210689e-5	135.7773
305	1.212105e-5	121.4851
305.5	1.19383e-5	106.4722
306	1.197082e-5	92.52381
306.5	1.170797e-5	78.16788
307	1.184511e-5	64.22727
307.5	1.181429e-5	48.89913
308	1.165009e-5	35.12031
308.5	1.163458e-5	20.89549
309	1.158293e-5	6.423931
309.5	1.152458e-5	-7.954871
310	1.143934e-5	-22.57611
310.5	1.125176e-5	-36.27459
311	1.131722e-5	-50.83179
311.5	1.120385e-5	-65.72124
312	1.110592e-5	-79.57346
312.5	1.102144e-5	-94.24638
313	1.108523e-5	-108.4442
313.5	1.095487e-5	-122.5435
314	1.070709e-5	-136.4952
314.5	1.068794e-5	-152.073
315	1.074328e-5	-166.1544
315.5	1.05734e-5	179.7316
316	1.04739e-5	164.7064
316.5	1.032518e-5	151.457
317	1.031426e-5	135.9275
317.5	1.031439e-5	121.7132
318	1.010918e-5	108.0022
318.5	1.032587e-5	92.86008
319	1.013305e-5	78.61735
319.5	1.003045e-5	64.98158
320	1.009547e-5	50.05929
320.5	9.858809e-6	35.9203
321	9.992371e-6	21.46351
321.5	9.696539e-6	6.741649
322	9.867878e-6	-6.649302
322.5	9.716649e-6	-20.56492
323	9.601262e-6	-35.39135
323.5	9.633296e-6	-50.32945
324	9.540432e-6	-63.89542
324.5	9.528047e-6	-79.36166
325	9.467093e-6	-92.74033
325.5	9.311561e-6	-107.0602
326	9.247919e-6	-121.0418
326.5	9.276991e-6	-135.4196
327	9.180586e-6	-149.3338
327.5	9.005369e-6	-164.4122
328	9.138083e-6	-178.8429
328.5	8.849389e-6	166.4812
329	8.985095e-6	152.0097
329.5	8.815457e-6	137.8051
330	8.797222e-6	122.9236
330.5	8.677584e-6	108.9652
331	8.656005e-6	94.3479
331.5	8.746229e-6	79.9782
332	8.609198e-6	66.56145
332.5	8.608282e-6	51.74625
333	8.514825e-6	37.6441
333.5	8.439295e-6	23.26655
334	8.326273e-6	8.637693
334.5	8.38489e-6	-5.009337
335	8.190371e-6	-19.90347
335.5	8.216414e-6	-33.88542
336	8.181122e-6	-48.07309
336.5	8.057404e-6	-61.65439
337	8.102248e-6	-76.70142
337.5	8.000903e-6	-91.17182
338	7.997287e-6	-105.572
338.5	7.886108e-6	-119.6653
339	7.781649e-6	-134.0097
339.5	7.734101e-6	-147.7391
340	7.738311e-6	-162.4246
340.5	7.612638e-6	-177.1851
341	7.600995e-6	169.5365
341.5	7.557035e-6	153.825
342	7.576315e-6	140.4295
342.5	7.388391e-6	125.3889
343	7.392347e-6	111.0066
343.5	7.346619e-6	96.82122
344	7.432739e-6	82.49519
344.5	7.241713e-6	67.81921
345	7.227793e-6	53.72636
345.5	7.260131e-6	39.75141
346	7.210848e-6	25.66423
346.5	7.026807e-6	10.41945
347	7.0491e-6	-2.328671
347.5	6.937536e-6	-18.01252
348	6.927257e-6	-30.57578
348.5	6.819876e-6	-45.05869
349	6.758477e-6	-60.83348
349.5	6.749627e-6	-73.34173
350	6.631437e-6	-88.15046
