Source File Name:	10,1,3
Signal:	FFT - Ref1 Force - Mag. & Phase

Frequency	Magnitude	Phase
[ Hz ]	[ N ]	[ ° ]
20	0.0001206675	149.1705
20.5	0.0001193781	135.1161
21	0.0001199405	120.4474
21.5	0.0001200629	106.3602
22	0.0001192275	92.04472
22.5	0.0001196931	77.51536
23	0.0001195004	63.28934
23.5	0.0001192933	49.04307
24	0.0001194772	34.75127
24.5	0.0001195254	20.41652
25	0.0001194925	6.061895
25.5	0.0001198968	-8.088015
26	0.0001198235	-22.32807
26.5	0.0001196938	-36.59444
27	0.0001198025	-50.60717
27.5	0.0001193527	-64.8979
28	0.0001194822	-79.28107
28.5	0.0001196513	-93.26192
29	0.0001193595	-107.62
29.5	0.0001193241	-121.8247
30	0.0001190975	-136.0452
30.5	0.0001186147	-150.3858
31	0.0001186658	-164.5248
31.5	0.0001182807	-178.8477
32	0.0001179442	166.8686
32.5	0.0001179523	152.5262
33	0.0001179088	138.2903
33.5	0.0001177934	124.033
34	0.0001173066	109.7068
34.5	0.000117285	95.33399
35	0.000117112	81.00459
35.5	0.0001171696	66.74599
36	0.000116994	52.48704
36.5	0.00011697	38.13714
37	0.0001168548	23.79075
37.5	0.000116818	9.59049
38	0.000117095	-4.674989
38.5	0.0001167127	-18.86579
39	0.0001167594	-33.19358
39.5	0.0001167158	-47.44277
40	0.0001164183	-61.61154
40.5	0.0001163278	-75.80956
41	0.00011616	-90.03429
41.5	0.0001159384	-104.356
42	0.0001157872	-118.5687
42.5	0.0001154562	-132.7795
43	0.000115461	-146.9821
43.5	0.0001150553	-161.2234
44	0.0001148217	-175.5154
44.5	0.0001146729	170.1989
45	0.0001143625	155.9699
45.5	0.0001141483	141.5584
46	0.0001139886	127.4283
46.5	0.0001138954	113.0571
47	0.0001135082	98.76653
47.5	0.000113415	84.57545
48	0.0001132196	70.1053
48.5	0.000113088	55.77827
49	0.0001131703	41.60084
49.5	0.0001129264	27.27167
50	0.0001125608	13.07853
50.5	0.0001126428	-1.231801
51	0.0001125331	-15.40761
51.5	0.0001122228	-29.56571
52	0.0001121268	-43.92748
52.5	0.0001120593	-58.14396
53	0.000111854	-72.3526
53.5	0.000111671	-86.5242
54	0.0001113294	-100.8264
54.5	0.000110961	-115.0359
55	0.0001109261	-129.2693
55.5	0.0001105237	-143.5154
56	0.0001105477	-157.8216
56.5	0.000110133	-172.096
57	0.0001100059	173.6284
57.5	0.000109571	159.3391
58	0.0001091896	145.0487
58.5	0.0001091676	130.7047
59	0.000108784	116.6313
59.5	0.0001085489	102.2476
60	0.000108457	87.94302
60.5	0.0001081651	73.69994
61	0.00010809	59.27114
61.5	0.0001079959	45.14382
62	0.0001076176	30.80438
62.5	0.0001074392	16.70741
63	0.0001075093	2.315687
63.5	0.0001073311	-11.8675
64	0.0001073014	-25.93918
64.5	0.0001065847	-40.64106
65	0.0001065109	-54.68655
65.5	0.0001065518	-68.91237
66	0.0001060786	-83.07379
66.5	0.0001058893	-97.28833
67	0.0001055099	-111.5817
67.5	0.0001053909	-125.7646
68	0.0001049191	-140.056
68.5	0.0001048447	-154.221
69	0.0001044932	-168.5542
69.5	0.0001040773	177.2325
70	0.0001039099	162.9662
70.5	0.0001034054	148.6253
71	0.0001033707	134.3975
71.5	0.0001030352	120.1133
72	0.0001026957	105.9271
72.5	0.0001024969	91.59707
73	0.0001022424	77.21101
73.5	0.0001021167	62.99947
74	0.0001017689	48.7599
74.5	0.0001015208	34.44212
75	0.000101321	20.19787
75.5	0.0001011266	6.022109
76	0.0001009857	-8.22247
76.5	0.0001006337	-22.47254
77	0.0001005967	-36.7538
77.5	0.0001002412	-51.03329
78	0.0001000788	-65.11936
78.5	9.972945e-5	-79.40685
79	9.938203e-5	-93.60484
79.5	9.927012e-5	-107.9571
80	9.880841e-5	-122.1098
80.5	9.872745e-5	-136.3621
81	9.827531e-5	-150.5392
81.5	9.79614e-5	-164.7399
82	9.776059e-5	-179.0085
82.5	9.740576e-5	166.856
83	9.71038e-5	152.5317
83.5	9.669531e-5	138.3232
84	9.651593e-5	123.9795
84.5	9.617813e-5	109.7406
85	9.565991e-5	95.44471
85.5	9.540123e-5	81.15065
86	9.526886e-5	66.90147
86.5	9.499494e-5	52.60995
87	9.49508e-5	38.47104
87.5	9.449248e-5	24.05699
88	9.425835e-5	9.883268
88.5	9.407964e-5	-4.266129
89	9.37459e-5	-18.59932
89.5	9.351987e-5	-32.76793
90	9.335192e-5	-46.92043
90.5	9.306728e-5	-61.19606
91	9.268114e-5	-75.41831
91.5	9.245527e-5	-89.71149
92	9.21927e-5	-103.86
92.5	9.170837e-5	-118.1088
93	9.137997e-5	-132.3618
93.5	9.115361e-5	-146.5454
94	9.07704e-5	-160.8471
94.5	9.050498e-5	-175.0197
95	9.017156e-5	170.7484
95.5	8.987071e-5	156.5139
96	8.952869e-5	142.2341
96.5	8.913071e-5	127.9686
97	8.902277e-5	113.6621
97.5	8.851648e-5	99.48141
98	8.825358e-5	85.30553
98.5	8.799212e-5	70.87395
99	8.774555e-5	56.62169
99.5	8.754737e-5	42.46465
100	8.719468e-5	28.22138
100.5	8.700313e-5	13.92711
101	8.672944e-5	-0.2432014
101.5	8.650478e-5	-14.4455
102	8.601218e-5	-28.79279
102.5	8.58339e-5	-42.9201
103	8.554691e-5	-57.13541
103.5	8.525342e-5	-71.33514
104	8.497805e-5	-85.63893
104.5	8.463883e-5	-99.83591
105	8.45184e-5	-114.0499
105.5	8.388073e-5	-128.1137
106	8.356207e-5	-142.3558
106.5	8.309556e-5	-156.8014
107	8.305434e-5	-170.9506
107.5	8.283118e-5	174.9069
108	8.240046e-5	160.6754
108.5	8.220013e-5	146.4944
109	8.169816e-5	132.2342
109.5	8.134937e-5	117.9013
110	8.101002e-5	103.7434
110.5	8.074673e-5	89.48741
111	8.047539e-5	75.22372
111.5	8.007703e-5	60.95278
112	8.00234e-5	46.56911
112.5	7.965298e-5	32.5779
113	7.928538e-5	18.31327
113.5	7.911377e-5	3.997571
114	7.886215e-5	-10.14002
114.5	7.839266e-5	-24.43844
115	7.810823e-5	-38.5403
115.5	7.80054e-5	-52.76189
116	7.75802e-5	-66.90898
116.5	7.73115e-5	-81.0712
117	7.691071e-5	-95.38012
117.5	7.643785e-5	-109.6115
118	7.630897e-5	-123.7965
118.5	7.603916e-5	-137.8043
119	7.564532e-5	-152.1669
119.5	7.525223e-5	-166.3599
120	7.495855e-5	179.4123
120.5	7.459991e-5	165.1117
121	7.424303e-5	151.1355
121.5	7.396717e-5	136.6815
122	7.374125e-5	122.4453
122.5	7.33627e-5	108.3356
123	7.308323e-5	94.04143
123.5	7.277391e-5	79.79618
124	7.238695e-5	65.51274
124.5	7.227115e-5	51.38361
125	7.189281e-5	37.11559
125.5	7.156434e-5	22.94476
126	7.138187e-5	8.768554
126.5	7.106762e-5	-5.600638
127	7.070679e-5	-19.67339
127.5	7.051102e-5	-33.78772
128	7.011265e-5	-47.89804
128.5	6.957208e-5	-61.97726
129	6.947869e-5	-76.54772
129.5	6.91652e-5	-90.56855
130	6.888776e-5	-104.7447
130.5	6.854468e-5	-118.9571
131	6.820814e-5	-133.067
131.5	6.805495e-5	-147.3165
132	6.763488e-5	-161.2894
132.5	6.716611e-5	-175.6518
133	6.698067e-5	170.0323
133.5	6.650214e-5	155.914
134	6.612579e-5	141.6681
134.5	6.571821e-5	127.3916
135	6.540226e-5	113.2246
135.5	6.5245e-5	99.11468
136	6.493196e-5	84.89884
136.5	6.466088e-5	70.68182
137	6.427304e-5	56.45227
137.5	6.39387e-5	42.1689
138	6.370738e-5	28.03492
138.5	6.358746e-5	13.90573
139	6.328738e-5	-0.3631479
139.5	6.286849e-5	-14.51285
140	6.26996e-5	-28.74353
140.5	6.233925e-5	-42.80129
141	6.204398e-5	-56.91306
141.5	6.170544e-5	-71.24024
142	6.139015e-5	-85.33073
142.5	6.114478e-5	-99.36204
143	6.069244e-5	-113.4861
143.5	6.040774e-5	-127.6319
144	6.007744e-5	-142.0218
144.5	5.984294e-5	-156.1222
145	5.944014e-5	-170.3183
145.5	5.903056e-5	175.4557
146	5.894505e-5	161.2175
146.5	5.849028e-5	146.9376
147	5.815999e-5	132.8932
147.5	5.784686e-5	118.7432
148	5.748545e-5	104.6566
148.5	5.741846e-5	90.42094
149	5.698457e-5	76.08781
149.5	5.677195e-5	61.81739
150	5.643259e-5	47.74985
150.5	5.62084e-5	33.60631
151	5.589036e-5	19.3784
151.5	5.560392e-5	5.277232
152	5.546362e-5	-9.1081
152.5	5.506955e-5	-23.1147
153	5.487359e-5	-37.22299
153.5	5.449454e-5	-51.35295
154	5.42277e-5	-65.52189
154.5	5.398619e-5	-79.72121
155	5.362437e-5	-93.55859
155.5	5.33157e-5	-107.858
156	5.303206e-5	-121.9905
156.5	5.278965e-5	-136.1512
157	5.243348e-5	-150.2872
157.5	5.203148e-5	-164.3958
158	5.176494e-5	-178.5764
158.5	5.14027e-5	167.2554
159	5.11148e-5	152.863
159.5	5.094118e-5	138.5973
160	5.069107e-5	124.6633
160.5	5.033058e-5	110.416
161	4.997438e-5	96.48502
161.5	4.976533e-5	82.1243
162	4.95412e-5	67.88496
162.5	4.930713e-5	53.79184
163	4.898916e-5	39.80694
163.5	4.86983e-5	25.59658
164	4.847075e-5	11.33697
164.5	4.809373e-5	-2.689801
165	4.795252e-5	-16.94451
165.5	4.755261e-5	-31.04585
166	4.736182e-5	-45.06245
166.5	4.717722e-5	-59.1817
167	4.685699e-5	-73.21358
167.5	4.653452e-5	-87.46388
168	4.634944e-5	-101.2983
168.5	4.58486e-5	-115.7261
169	4.564439e-5	-129.8263
169.5	4.552691e-5	-144.0336
170	4.51906e-5	-158.171
170.5	4.486202e-5	-172.0375
171	4.448329e-5	173.7373
171.5	4.418101e-5	159.478
172	4.402182e-5	145.4255
172.5	4.376129e-5	131.3885
173	4.358812e-5	117.0472
173.5	4.317768e-5	102.9006
174	4.308298e-5	89.12766
174.5	4.2746e-5	74.7123
175	4.244116e-5	60.55124
175.5	4.243366e-5	46.59049
176	4.201856e-5	32.23784
176.5	4.17467e-5	18.25723
177	4.166071e-5	4.12872
177.5	4.131154e-5	-9.964635
178	4.098605e-5	-23.95999
178.5	4.072847e-5	-38.15592
179	4.055406e-5	-52.09629
179.5	4.029091e-5	-66.18082
180	4.007071e-5	-80.42024
180.5	3.982443e-5	-94.539
181	3.953994e-5	-108.5476
181.5	3.912838e-5	-122.6794
182	3.894651e-5	-136.8569
182.5	3.880806e-5	-150.7897
183	3.856805e-5	-164.8388
183.5	3.823367e-5	-179.0829
184	3.809042e-5	166.9605
184.5	3.79066e-5	152.7565
185	3.746979e-5	138.7128
185.5	3.720518e-5	124.4998
186	3.71232e-5	110.4142
186.5	3.676931e-5	96.2803
187	3.658632e-5	82.25313
187.5	3.648787e-5	68.20632
188	3.610073e-5	53.96812
188.5	3.58363e-5	40.08198
189	3.581946e-5	25.76663
189.5	3.549007e-5	11.79821
190	3.529355e-5	-2.101802
190.5	3.514576e-5	-16.48598
191	3.495348e-5	-30.257
191.5	3.465949e-5	-44.44894
192	3.443092e-5	-58.28531
192.5	3.422158e-5	-72.6207
193	3.386321e-5	-86.57005
193.5	3.384369e-5	-100.6005
194	3.340136e-5	-114.7694
194.5	3.328397e-5	-128.2859
195	3.305252e-5	-142.667
195.5	3.274217e-5	-156.8577
196	3.258826e-5	-171.1443
196.5	3.236749e-5	175.0381
197	3.2216e-5	160.8182
197.5	3.186924e-5	146.8323
198	3.184672e-5	132.9939
198.5	3.145012e-5	118.6625
199	3.119221e-5	104.7752
199.5	3.106823e-5	90.60801
200	3.079612e-5	76.43295
200.5	3.081443e-5	62.37045
201	3.055638e-5	48.26604
201.5	3.029547e-5	34.24559
202	3.013949e-5	20.32518
202.5	3.0011e-5	6.538303
203	2.980709e-5	-7.430677
203.5	2.958857e-5	-21.71453
204	2.946207e-5	-35.99764
204.5	2.930853e-5	-49.8464
205	2.905848e-5	-63.76979
205.5	2.883146e-5	-77.81493
206	2.862447e-5	-91.7559
206.5	2.847361e-5	-105.7712
207	2.826505e-5	-119.9117
207.5	2.81223e-5	-133.7169
208	2.793339e-5	-147.7336
208.5	2.760997e-5	-161.806
209	2.737117e-5	-175.5549
209.5	2.714711e-5	170.0918
210	2.694548e-5	155.9674
210.5	2.683095e-5	142.0807
211	2.661491e-5	127.8409
211.5	2.659609e-5	113.728
212	2.642978e-5	99.84882
212.5	2.616528e-5	85.83622
213	2.603281e-5	71.73676
213.5	2.576311e-5	57.60724
214	2.565253e-5	43.82941
214.5	2.550272e-5	29.45411
215	2.53897e-5	15.60081
215.5	2.514674e-5	1.655969
216	2.50307e-5	-12.33439
216.5	2.487124e-5	-26.07797
217	2.469014e-5	-39.85499
217.5	2.460016e-5	-54.30999
218	2.438652e-5	-68.17619
218.5	2.440838e-5	-82.1404
219	2.411439e-5	-96.18349
219.5	2.39232e-5	-109.9517
220	2.380157e-5	-124.1524
220.5	2.352808e-5	-137.5934
221	2.331154e-5	-151.7231
221.5	2.312753e-5	-165.7491
222	2.30649e-5	-179.6822
222.5	2.281501e-5	165.9593
223	2.267073e-5	152.2345
223.5	2.252799e-5	138.3118
224	2.231165e-5	124.6351
224.5	2.221794e-5	110.5694
225	2.214893e-5	96.34438
225.5	2.204735e-5	82.04776
226	2.178926e-5	68.46164
226.5	2.157834e-5	54.01511
227	2.14375e-5	39.86383
227.5	2.149384e-5	26.16932
228	2.126721e-5	12.07258
228.5	2.112007e-5	-1.402447
229	2.090891e-5	-15.54133
229.5	2.087496e-5	-29.41758
230	2.080956e-5	-43.23645
230.5	2.059672e-5	-57.41751
231	2.045192e-5	-71.31564
231.5	2.014139e-5	-84.90301
232	2.013222e-5	-99.12898
232.5	2.01237e-5	-113.2141
233	1.999395e-5	-126.6438
233.5	1.988486e-5	-140.8715
234	1.957885e-5	-154.9376
234.5	1.939012e-5	-168.5417
235	1.929435e-5	177.1917
235.5	1.91372e-5	163.2592
236	1.912529e-5	149.3214
236.5	1.89355e-5	135.6192
237	1.879879e-5	121.1971
237.5	1.865027e-5	107.2314
238	1.870722e-5	93.5461
238.5	1.852582e-5	79.55229
239	1.84351e-5	65.43429
239.5	1.82838e-5	51.58154
240	1.823084e-5	37.76635
240.5	1.812179e-5	23.34516
241	1.804426e-5	9.839394
241.5	1.79396e-5	-3.927331
242	1.769877e-5	-17.48198
242.5	1.758528e-5	-31.74383
243	1.750801e-5	-46.09818
243.5	1.739991e-5	-59.48603
244	1.723659e-5	-73.4065
244.5	1.71499e-5	-87.31718
245	1.71868e-5	-100.8451
245.5	1.697582e-5	-114.7771
246	1.686231e-5	-129.206
246.5	1.680926e-5	-142.9574
247	1.660882e-5	-156.8953
247.5	1.633571e-5	-170.6896
248	1.619471e-5	175.09
248.5	1.622233e-5	160.9092
249	1.614719e-5	147.3434
249.5	1.611059e-5	133.7676
250	1.6114e-5	119.0466
250.5	1.602008e-5	105.2628
251	1.572609e-5	91.44469
251.5	1.561136e-5	77.8163
252	1.544235e-5	63.81278
252.5	1.548594e-5	49.83064
253	1.556563e-5	36.09512
253.5	1.53914e-5	21.61016
254	1.519472e-5	8.412089
254.5	1.518776e-5	-5.469373
255	1.503993e-5	-19.62751
255.5	1.48941e-5	-32.90318
256	1.479839e-5	-47.14914
256.5	1.469597e-5	-61.4192
257	1.458262e-5	-74.96443
257.5	1.487177e-5	-88.98048
258	1.457615e-5	-103.2086
258.5	1.443153e-5	-116.8041
259	1.435552e-5	-130.3677
259.5	1.411146e-5	-144.5132
260	1.412037e-5	-158.0331
260.5	1.406794e-5	-172.0118
261	1.39546e-5	173.9715
261.5	1.380828e-5	160.3046
262	1.361243e-5	146.1525
262.5	1.363603e-5	132.0488
263	1.360173e-5	118.3621
263.5	1.346913e-5	104.0107
264	1.339083e-5	90.46428
264.5	1.335504e-5	76.54547
265	1.320852e-5	62.30569
265.5	1.32015e-5	48.65107
266	1.316937e-5	34.7268
266.5	1.302558e-5	20.88241
267	1.302223e-5	7.138739
267.5	1.305519e-5	-7.101446
268	1.28638e-5	-21.28958
268.5	1.288614e-5	-33.99055
269	1.272827e-5	-48.18816
269.5	1.259384e-5	-62.35741
270	1.28147e-5	-75.61925
270.5	1.243363e-5	-90.01237
271	1.23904e-5	-103.3124
271.5	1.226579e-5	-117.5736
272	1.20994e-5	-131.2814
272.5	1.209334e-5	-145.2496
273	1.198867e-5	-159.6667
273.5	1.20928e-5	-172.9847
274	1.186358e-5	173.0259
274.5	1.184698e-5	159.4873
275	1.188203e-5	144.889
275.5	1.171971e-5	131.1923
276	1.166518e-5	117.6587
276.5	1.161959e-5	102.9096
277	1.15957e-5	89.41196
277.5	1.153714e-5	75.43779
278	1.145008e-5	61.3313
278.5	1.139465e-5	47.78215
279	1.125632e-5	34.1339
279.5	1.135137e-5	20.56837
280	1.11266e-5	6.870151
280.5	1.110431e-5	-7.69635
281	1.117578e-5	-22.73321
281.5	1.107076e-5	-35.01091
282	1.101392e-5	-48.68532
282.5	1.07633e-5	-61.91232
283	1.095819e-5	-76.67142
283.5	1.07896e-5	-91.09892
284	1.07416e-5	-103.9916
284.5	1.052064e-5	-118.6749
285	1.041611e-5	-132.2651
285.5	1.054377e-5	-145.6338
286	1.038912e-5	-159.6302
286.5	1.045875e-5	-173.7264
287	1.038653e-5	172.9047
287.5	1.027646e-5	158.9966
288	1.024602e-5	144.9899
288.5	1.008452e-5	130.983
289	1.007399e-5	116.642
289.5	1.008216e-5	102.895
290	9.888324e-6	89.3376
290.5	9.910938e-6	75.37142
291	9.816976e-6	61.10337
291.5	9.733577e-6	47.06026
292	9.711571e-6	33.25174
292.5	9.738322e-6	20.10824
293	9.610531e-6	6.167175
293.5	9.626893e-6	-8.125291
294	9.645651e-6	-21.45729
294.5	9.541465e-6	-35.45099
295	9.496684e-6	-48.63068
295.5	9.503117e-6	-62.42442
296	9.409218e-6	-76.81995
296.5	9.280204e-6	-90.21927
297	9.12454e-6	-103.9451
297.5	9.118867e-6	-117.9239
298	8.99611e-6	-131.9641
298.5	8.985599e-6	-146.2461
299	8.987198e-6	-160.4576
299.5	8.806281e-6	-173.9742
300	8.765175e-6	173.0314
300.5	8.77871e-6	158.639
301	8.636672e-6	144.6164
301.5	8.607125e-6	130.4697
302	8.642657e-6	116.2394
302.5	8.73612e-6	103.1088
303	8.482436e-6	89.69371
303.5	8.574637e-6	74.86325
304	8.432006e-6	60.74295
304.5	8.385121e-6	48.14388
305	8.509018e-6	34.67857
305.5	8.30828e-6	19.8665
306	8.452137e-6	5.927375
306.5	8.398902e-6	-7.6464
307	8.170412e-6	-20.87637
307.5	8.186427e-6	-34.40543
308	8.206916e-6	-48.49071
308.5	8.07482e-6	-62.85445
309	8.074673e-6	-76.56037
309.5	8.075687e-6	-90.49245
310	7.934182e-6	-103.1773
310.5	7.790412e-6	-117.9282
311	7.778207e-6	-131.9751
311.5	7.749799e-6	-145.1072
312	7.737379e-6	-158.1442
312.5	7.681863e-6	-171.9308
313	7.663228e-6	173.7845
313.5	7.609073e-6	160.1454
314	7.489426e-6	145.7099
314.5	7.557655e-6	131.5967
315	7.50628e-6	117.875
315.5	7.445887e-6	104.0414
316	7.44087e-6	89.71033
316.5	7.375351e-6	75.61129
317	7.364825e-6	60.8094
317.5	7.316485e-6	47.93264
318	7.337719e-6	33.85926
318.5	7.302683e-6	20.47998
319	7.263716e-6	7.91324
319.5	7.150822e-6	-5.623126
320	7.002921e-6	-19.11118
320.5	7.03598e-6	-32.89177
321	7.076201e-6	-47.10924
321.5	6.960539e-6	-60.53879
322	7.000471e-6	-76.05718
322.5	6.899763e-6	-89.32478
323	6.942144e-6	-103.2454
323.5	6.864753e-6	-116.7388
324	6.800833e-6	-129.9879
324.5	6.779118e-6	-144.0109
325	6.604342e-6	-157.9562
325.5	6.666168e-6	-172.4704
326	6.653503e-6	173.6088
326.5	6.573075e-6	160.8879
327	6.512792e-6	147.3989
327.5	6.399702e-6	133.545
328	6.357937e-6	119.3708
328.5	6.487332e-6	105.3918
329	6.443175e-6	90.9791
329.5	6.387411e-6	78.48428
330	6.419915e-6	63.6801
330.5	6.33995e-6	50.48832
331	6.131894e-6	36.09975
331.5	6.257367e-6	21.88898
332	6.284345e-6	9.02507
332.5	6.222142e-6	-4.127042
333	6.13087e-6	-18.4988
333.5	6.135935e-6	-32.38324
334	6.159133e-6	-45.21657
334.5	5.98276e-6	-59.46928
335	6.021152e-6	-72.86182
335.5	6.071495e-6	-86.01878
336	5.906532e-6	-99.76576
336.5	5.948044e-6	-114.3335
337	5.809025e-6	-128.6465
337.5	5.860044e-6	-142.7551
338	5.825829e-6	-154.7973
338.5	5.798046e-6	-168.2052
339	5.642746e-6	178.1377
339.5	5.64924e-6	163.7335
340	5.664589e-6	148.778
340.5	5.713731e-6	136.0094
341	5.723268e-6	121.0195
341.5	5.702973e-6	108.5678
342	5.707489e-6	94.88455
342.5	5.54383e-6	81.46503
343	5.58809e-6	67.05096
343.5	5.606807e-6	52.57371
344	5.687035e-6	39.92075
344.5	5.502982e-6	25.26999
345	5.389682e-6	13.79204
345.5	5.512199e-6	-1.321203
346	5.39261e-6	-14.39927
346.5	5.476253e-6	-27.37168
347	5.381097e-6	-42.99241
347.5	5.495561e-6	-54.97459
348	5.28177e-6	-68.44133
348.5	5.201327e-6	-82.61086
349	5.41479e-6	-96.30917
349.5	5.245169e-6	-109.7811
350	5.36458e-6	-123.9389
