Source File Name:	10,2,1
Signal:	FFT - Vib Velocity - Mag. & Phase

Frequency	Magnitude	Phase
[ Hz ]	[ m/s ]	[ ° ]
20	12.15137	-57.80336
20.5	11.86613	-84.17447
21	12.80085	-116.8457
21.5	11.76005	-140.2336
22	10.58415	-165.015
22.5	10.17388	174.4206
23	8.613733	163.4534
23.5	8.52069	138.6538
24	8.513937	123.0348
24.5	9.039122	100.051
25	7.274139	90.83576
25.5	7.457963	70.11629
26	6.54051	57.31202
26.5	7.220245	40.96945
27	7.713154	26.59679
27.5	6.620949	13.03898
28	7.907322	-7.421863
28.5	6.772554	-27.37308
29	7.141635	-41.97845
29.5	6.089848	-61.51523
30	6.621869	-71.90102
30.5	6.51192	-90.15566
31	6.130538	-102.5741
31.5	7.858989	-121.0353
32	6.731874	-142.4899
32.5	7.052349	-153.0645
33	6.067097	-177.6185
33.5	6.414355	-178.5565
34	6.870992	153.0032
34.5	7.460993	133.5802
35	7.695878	117.183
35.5	7.134531	95.64344
36	7.527684	77.07107
36.5	7.122447	54.56418
37	7.078729	35.40981
37.5	6.171588	22.49747
38	7.710387	-2.568424
38.5	7.579124	-24.53367
39	7.041073	-51.23438
39.5	6.047897	-70.19852
40	5.683241	-98.35525
40.5	4.216131	-117.8152
41	4.066599	-145.3944
41.5	4.05419	-157.7408
42	2.506935	-175.5565
42.5	2.683943	169.2349
43	1.991016	144.843
43.5	1.860849	106.4678
44	0.5285776	-176.3104
44.5	0.9186058	97.58711
45	0.1868243	119.369
45.5	0.6642684	126.517
46	0.9907737	76.25066
46.5	0.2632675	114.347
47	0.9539647	132.5383
47.5	0.7636974	138.8001
48	0.6076721	152.0666
48.5	1.261866	77.49854
49	0.4835743	-173.8892
49.5	0.7525823	146.3013
50	1.083301	37.41488
50.5	0.3772092	32.02856
51	1.888516	63.17656
51.5	1.448518	-8.57479
52	1.282181	25.64912
52.5	1.9709	2.576493
53	0.9592899	-49.12093
53.5	1.351745	-23.61081
54	1.824321	-70.43059
54.5	1.32893	-71.90614
55	1.265791	-92.49031
55.5	1.790455	-91.6206
56	1.568748	-126.689
56.5	1.284458	-137.3251
57	1.469351	-142.8426
57.5	1.421216	179.6461
58	0.7894952	-136.0793
58.5	1.58089	154.9799
59	0.9678895	146.6775
59.5	1.675791	168.9979
60	1.615286	124.9144
60.5	1.215982	149.4263
61	1.603364	112.5181
61.5	1.228543	118.4261
62	1.588755	84.51411
62.5	2.231643	80.55532
63	1.875508	46.37142
63.5	1.726622	46.091
64	2.91097	21.74318
64.5	2.011103	-8.832677
65	1.773469	20.30825
65.5	2.365238	-38.4355
66	1.070423	-50.20456
66.5	1.784086	-37.93153
67	2.100625	-78.1975
67.5	1.806722	-71.2246
68	1.820888	-85.91066
68.5	1.463538	-82.90909
69	1.832648	-100.3083
69.5	2.529907	-114.3124
70	2.42282	-138.1452
70.5	2.189939	-151.2542
71	2.947808	-169.5778
71.5	2.65596	169.4927
72	2.827398	160.8139
72.5	2.913317	146.3461
73	3.254998	142.112
73.5	2.758077	109.8326
74	3.149296	92.30238
74.5	2.837847	73.3736
75	2.941564	78.57676
75.5	3.250001	60.83968
76	3.345912	45.34531
76.5	3.851155	31.44609
77	3.636127	8.63667
77.5	3.485001	-6.947918
78	3.928017	-7.651196
78.5	4.22279	-37.48831
79	3.690235	-57.08229
79.5	4.370019	-61.91523
80	4.445741	-80.55816
80.5	4.170977	-92.23925
81	4.203949	-116.0373
81.5	4.18011	-121.0966
82	4.739172	-139.9797
82.5	4.571416	-155.8059
83	4.845163	-167.5245
83.5	4.897867	177.3923
84	4.982783	156.2427
84.5	5.842372	147.7883
85	5.513381	132.6217
85.5	5.621381	113.7502
86	5.633546	98.9818
86.5	6.098415	80.56318
87	5.473247	72.73393
87.5	6.738104	58.50579
88	7.080396	38.26107
88.5	6.772267	26.38688
89	7.60272	7.629987
89.5	8.058546	-10.18985
90	7.766147	-26.52686
90.5	7.302719	-38.82815
91	8.273513	-57.12141
91.5	8.479547	-72.69584
92	9.310761	-86.33086
92.5	9.610926	-106.2539
93	9.244628	-120.2776
93.5	9.455841	-137.4192
94	9.48404	-152.7894
94.5	10.59794	-169.8909
95	11.23109	177.6274
95.5	11.32043	156.2182
96	11.76587	140.1159
96.5	12.47071	123.6465
97	12.5894	104.4667
97.5	12.05739	89.35561
98	13.60625	71.21423
98.5	13.1069	51.6663
99	13.69678	32.95578
99.5	13.78213	16.51105
100	13.20114	-0.1867765
100.5	12.99689	-17.1285
101	12.92497	-35.03278
101.5	13.67398	-50.84655
102	13.49619	-69.06107
102.5	13.14503	-86.97422
103	13.14196	-103.4218
103.5	12.80327	-121.5513
104	12.18419	-137.5105
104.5	11.80697	-153.5584
105	11.0789	-167.6111
105.5	10.56052	176.2668
106	10.70878	160.8399
106.5	10.59902	150.0565
107	9.536918	139.4609
107.5	10.01463	132.7497
108	11.3519	115.6287
108.5	11.46357	104.0956
109	12.39211	90.69019
109.5	14.57701	73.24904
110	14.1908	58.02142
110.5	15.70168	43.33172
111	17.2784	25.48638
111.5	18.70967	8.677265
112	20.098	-9.598151
112.5	20.96079	-30.59443
113	21.85849	-49.8072
113.5	22.89115	-68.34763
114	24.10609	-88.73975
114.5	24.01695	-109.243
115	25.16865	-128.5932
115.5	24.3625	-151.9904
116	23.63524	-172.5287
116.5	22.96747	168.5817
117	20.96544	149.4315
117.5	20.12491	132.4389
118	19.611	114.2046
118.5	18.50576	97.50797
119	17.68047	81.35442
119.5	17.4197	64.36541
120	16.20677	49.30813
120.5	15.36186	32.02031
121	15.50095	18.06748
121.5	15.54751	1.692836
122	14.4003	-14.61799
122.5	14.56566	-30.61188
123	14.36943	-47.37102
123.5	13.52458	-61.36195
124	13.44855	-77.70822
124.5	12.26289	-92.86971
125	12.34261	-104.939
125.5	12.99553	-122.1526
126	12.40609	-139.057
126.5	13.12874	-151.8406
127	12.19227	-168.244
127.5	11.99076	176.4215
128	12.29863	162.1919
128.5	12.14958	144.8983
129	11.53084	129.8103
129.5	12.1231	113.8785
130	11.85488	96.15734
130.5	11.4291	84.97111
131	12.12805	67.11267
131.5	11.4213	53.81016
132	11.42241	41.16934
132.5	11.20909	18.68199
133	11.40705	3.512978
133.5	10.98217	-8.843647
134	11.16054	-24.81765
134.5	11.38154	-38.06105
135	11.66836	-52.56192
135.5	11.35156	-69.72976
136	11.41747	-85.72596
136.5	11.45793	-102.2706
137	11.39711	-119.1035
137.5	11.27926	-135.0341
138	11.81209	-151.0602
138.5	11.53102	-164.8069
139	11.76224	179.955
139.5	11.18142	162.3575
140	11.05495	146.1181
140.5	10.64159	131.674
141	11.50879	115.8632
141.5	11.9163	97.29327
142	11.14218	87.23486
142.5	11.8287	68.0381
143	11.16059	50.42647
143.5	12.0755	39.68744
144	11.47924	19.26289
144.5	11.5761	2.125885
145	12.00222	-12.88264
145.5	12.27518	-33.2677
146	11.74524	-50.42765
146.5	11.65423	-65.08739
147	10.57411	-81.75578
147.5	10.64082	-96.97807
148	11.0542	-114.9436
148.5	10.811	-131.9621
149	9.924042	-150.0962
149.5	9.760703	-165.4145
150	8.994562	178.4999
150.5	8.746116	168.3842
151	8.889088	153.7352
151.5	7.957554	139.684
152	8.47953	130.6197
152.5	8.035527	111.9357
153	8.664551	98.26754
153.5	8.874971	89.18902
154	9.595109	76.74776
154.5	9.897249	56.18454
155	10.87953	41.26392
155.5	10.93925	23.69035
156	10.94144	7.192657
156.5	11.31611	-8.317304
157	12.06411	-27.26894
157.5	11.68441	-45.68187
158	12.79551	-63.28965
158.5	13.30732	-80.27939
159	12.64777	-99.32047
159.5	13.09525	-117.6149
160	13.44529	-136.4047
160.5	12.84913	-157.0564
161	13.09898	-175.4219
161.5	12.97873	166.201
162	13.08943	146.0468
162.5	12.89592	126.207
163	11.87142	104.8726
163.5	11.21327	91.21321
164	10.53032	71.62089
164.5	10.63083	48.92932
165	10.21548	29.02647
165.5	9.277941	13.32575
166	8.840478	-4.075592
166.5	7.999969	-23.24814
167	6.746415	-40.36491
167.5	6.538498	-51.12354
168	6.44833	-74.70161
168.5	5.881098	-86.30862
169	5.092518	-104.9672
169.5	5.438438	-123.6079
170	5.184969	-131.0195
170.5	4.126616	-145.4034
171	4.190165	-158.5982
171.5	4.074595	179.9116
172	3.633334	161.967
172.5	3.956381	143.7057
173	3.454406	130.3298
173.5	3.372195	121.5444
174	2.974403	105.0672
174.5	2.832037	80.84198
175	2.610206	77.09993
175.5	2.504514	55.80947
176	1.928227	18.08703
176.5	1.550408	20.94592
177	2.021132	6.879242
177.5	1.254422	2.194313
178	1.551423	1.691409
178.5	1.4123	-11.37226
179	1.138726	-35.0474
179.5	0.5400828	-79.75443
180	0.9061157	-51.25391
180.5	1.199146	-39.54267
181	0.9587713	-69.39643
181.5	0.8257567	-94.30338
182	1.488783	-87.31184
182.5	0.7364827	-136.9796
183	0.4863794	-63.56051
183.5	1.040564	-100.3605
184	1.122038	-102.974
184.5	0.791546	-139.4626
185	0.881008	-162.347
185.5	1.140941	-160.0825
186	0.8767612	-153.4679
186.5	1.183708	-174.3367
187	1.427474	-174.7128
187.5	1.646229	158.6097
188	1.549308	133.2489
188.5	0.9319336	127.7447
189	1.664265	143.6388
189.5	1.831218	107.7935
190	1.459052	83.73841
190.5	2.540279	74.80667
191	2.611105	47.82869
191.5	1.73572	51.01743
192	2.278668	27.30105
192.5	2.008109	8.491578
193	2.068157	10.80888
193.5	2.807288	-23.12911
194	2.255486	-51.06416
194.5	2.609311	-46.01742
195	2.397311	-76.25022
195.5	2.800589	-79.28996
196	2.958819	-85.4659
196.5	2.487681	-111.7548
197	2.672957	-134.8049
197.5	2.72245	-150.4346
198	2.736179	-169.6758
198.5	2.936099	-178.5313
199	3.276483	174.3569
199.5	3.110009	155.7376
200	3.065317	143.8405
200.5	3.311597	111.2786
201	2.815031	99.58393
201.5	2.913342	86.88681
202	2.891135	59.48561
202.5	3.182109	58.98344
203	3.372236	48.13
203.5	3.301158	32.91479
204	3.104427	19.12774
204.5	2.926702	3.823865
205	3.90375	-11.33575
205.5	3.771783	-45.41746
206	4.552931	-47.3862
206.5	4.594849	-69.18727
207	3.825315	-91.19688
207.5	4.405341	-97.65141
208	4.372861	-126.0505
208.5	3.621299	-143.638
209	4.470834	-157.1574
209.5	4.222447	-175.4371
210	4.460333	162.4215
210.5	4.558824	149.1334
211	4.284465	131.6829
211.5	3.602964	114.5838
212	3.666475	88.52796
212.5	3.5017	71.07633
213	3.485777	65.60208
213.5	3.552969	45.69417
214	3.302442	29.84969
214.5	3.101232	14.23535
215	2.991881	-5.473184
215.5	2.797359	-14.92716
216	2.483556	-28.94646
216.5	2.928314	-39.75105
217	2.599185	-60.99527
217.5	3.291512	-80.39539
218	2.874404	-90.05838
218.5	2.567494	-112.176
219	2.165237	-133.1998
219.5	2.957576	-130.8268
220	2.235548	-172.9967
220.5	2.280241	-172.4561
221	2.146369	176.5199
221.5	1.409209	159.7061
222	1.758696	152.3548
222.5	2.395886	136.8997
223	2.461257	116.8365
223.5	1.50466	112.3085
224	2.176327	95.89555
224.5	1.393071	71.03661
225	1.843884	78.69128
225.5	1.929027	51.0063
226	2.399357	47.07581
226.5	2.455751	9.970814
227	1.986683	-3.814136
227.5	1.841871	-22.21505
228	1.701535	-12.75871
228.5	1.991007	-19.017
229	1.571699	-68.38947
229.5	1.71012	-61.99817
230	2.375961	-92.73413
230.5	1.221831	-107.476
231	2.023468	-93.23004
231.5	1.801372	-101.4788
232	1.96568	-118.2144
232.5	2.157547	-147.7596
233	2.753269	-156.9148
233.5	2.739764	168.0943
234	2.046239	144.0476
234.5	2.772052	139.6519
235	1.910857	134.6878
235.5	2.705101	120.2954
236	2.485145	94.27614
236.5	2.230618	61.93573
237	1.853757	36.7187
237.5	2.010848	40.16847
238	2.266414	17.51185
238.5	1.536555	34.83658
239	1.883078	11.36638
239.5	2.192689	-16.96211
240	1.528518	-41.71604
240.5	1.581588	-59.02653
241	1.312514	-65.1807
241.5	1.540849	-64.40329
242	2.160796	-73.90283
242.5	1.875099	-93.39107
243	2.121074	-118.7705
243.5	1.436867	-130.3538
244	1.229951	-156.5375
244.5	1.53272	175.1558
245	1.710967	-158.7397
245.5	1.749092	177.7214
246	2.135332	158.2127
246.5	1.690842	161.3167
247	1.781979	133.3257
247.5	2.122049	98.82397
248	1.451706	75.64539
248.5	1.896996	89.85054
249	1.610588	58.86101
249.5	1.646939	42.3342
250	1.848742	42.45025
250.5	1.583154	32.06515
251	1.694163	5.737531
251.5	1.22539	-9.250061
252	1.917889	-23.92311
252.5	1.837081	-56.69693
253	1.820004	-41.50478
253.5	1.942185	-79.22468
254	1.148739	-67.54186
254.5	1.498364	-96.17841
255	1.631244	-115.2708
255.5	1.666501	-105.9741
256	1.83533	-152.2308
256.5	1.862456	-157.2426
257	1.786804	-157.6179
257.5	2.173263	166.5255
258	1.872674	151.2651
258.5	1.965745	140.6932
259	1.850037	121.6526
259.5	1.703016	92.73796
260	2.137454	86.32654
260.5	1.278008	64.00068
261	1.362921	71.69862
261.5	2.072052	48.05782
262	1.666386	12.63567
262.5	1.390234	20.64545
263	1.844473	-7.169345
263.5	1.682156	-2.742089
264	1.538017	-43.23816
264.5	1.323673	-43.32011
265	1.922636	-77.18617
265.5	1.718696	-92.73894
266	1.457672	-113.478
266.5	0.9703408	-125.6219
267	0.9830099	-105.7479
267.5	0.7056261	-143.3538
268	0.8192046	-115.3155
268.5	1.430861	-149.3502
269	1.136654	-163.836
269.5	1.117942	148.6518
270	1.278219	163.5761
270.5	2.139	164.4821
271	0.9701723	142.4437
271.5	1.566533	148.6638
272	1.948516	96.49718
272.5	1.550871	65.87628
273	1.637242	57.87642
273.5	1.30032	42.26886
274	1.521543	63.53163
274.5	1.491145	24.44542
275	1.684012	23.75451
275.5	1.727015	-3.960113
276	0.9811072	-21.77347
276.5	1.290579	-54.18987
277	1.469568	-53.77603
277.5	1.375914	-60.1004
278	2.142834	-65.6753
278.5	1.765215	-85.3214
279	1.702781	-100.102
279.5	1.467891	-123.8353
280	1.651944	-161.7074
280.5	1.596044	-162.4852
281	1.252558	-173.8282
281.5	1.947771	175.5107
282	1.625956	156.0014
282.5	1.645135	160.8809
283	1.428687	136.0383
283.5	1.786392	116.0926
284	1.602201	81.29171
284.5	1.282587	95.13081
285	2.265188	55.61614
285.5	1.659874	47.03324
286	1.946092	57.50743
286.5	1.497056	15.39095
287	1.392483	0.4877222
287.5	1.389135	-0.6499318
288	1.562953	-21.10508
288.5	2.110578	-38.45327
289	1.61445	-34.35796
289.5	2.318711	-73.13276
290	1.863146	-94.65998
290.5	2.115718	-89.74724
291	2.052223	-118.0033
291.5	1.806512	-147.577
292	1.598111	-165.4541
292.5	1.892252	-165.9404
293	1.781043	177.9144
293.5	1.481044	167.2836
294	2.081026	148.0303
294.5	1.412216	122.9386
295	1.813444	123.067
295.5	1.835732	99.58577
296	1.508081	101.4812
296.5	1.453981	86.75561
297	2.317418	57.45759
297.5	2.656194	44.49901
298	2.292198	22.84574
298.5	2.170306	-7.607096
299	1.985233	-18.3703
299.5	1.463021	-28.72961
300	2.209301	-42.29354
300.5	2.207389	-66.0378
301	1.68238	-86.7616
301.5	2.166642	-119.0441
302	1.42802	-125.2994
302.5	1.246708	-124.3465
303	1.30703	-125.1981
303.5	1.691575	-144.3128
304	1.503799	-164.4825
304.5	1.896105	-179.6978
305	1.780121	132.7934
305.5	1.801135	137.0166
306	1.672933	117.1364
306.5	1.147598	119.9965
307	1.682409	96.8505
307.5	1.643111	70.52731
308	1.510804	56.53016
308.5	1.426125	6.048625
309	0.9217335	10.62873
309.5	1.330767	11.10543
310	0.9093023	-25.15926
310.5	1.025497	16.17057
311	1.221128	-6.709023
311.5	0.6550349	-57.24072
312	1.050175	-84.41386
312.5	1.073292	-59.1965
313	1.023238	-87.06327
313.5	0.918925	-99.84814
314	1.213036	-102.1925
314.5	0.7427672	-138.2793
315	0.8731933	-147.9667
315.5	0.8632181	-145.0577
316	0.7901481	-161.7747
316.5	0.7208321	157.9507
317	0.8815258	165.6868
317.5	1.342122	149.7312
318	0.7905065	141.0987
318.5	0.8480395	146.3093
319	0.8960441	84.1096
319.5	0.8799325	94.93526
320	1.056535	77.13931
320.5	0.7793047	47.76371
321	1.152697	53.80599
321.5	0.8331613	0.541591
322	0.3148451	66.59357
322.5	1.148427	9.826357
323	0.5440574	15.07705
323.5	0.6821577	8.937971
324	1.306703	-38.16423
324.5	0.9811139	-44.67848
325	0.8884186	-40.64001
325.5	1.26055	-84.12334
326	1.440283	-74.53905
326.5	0.8603866	-115.5782
327	1.7858	-145.4738
327.5	1.116901	178.7248
328	0.7743044	-166.9448
328.5	0.6570982	-177.8862
329	0.7516108	-141.6214
329.5	1.253453	148.3589
330	0.6876116	148.8107
330.5	1.235171	111.3839
331	0.6708301	90.97028
331.5	0.8308896	123.1019
332	0.6039302	71.38963
332.5	1.130112	103.825
333	1.467387	59.38774
333.5	0.8798264	49.36678
334	0.8516867	-6.502205
334.5	1.043303	2.439797
335	0.9322032	-1.276735
335.5	1.102903	0.2097737
336	1.271714	-46.53072
336.5	0.7567111	-14.58278
337	1.165212	-93.59428
337.5	1.30201	-99.83568
338	0.627528	-76.15756
338.5	0.7592415	-97.70536
339	1.052315	-120.2524
339.5	1.174461	-147.1258
340	0.679172	-155.7752
340.5	1.180233	-150.7567
341	1.306978	158.663
341.5	0.4051066	172.8397
342	1.729632	154.9762
342.5	1.342978	106.2026
343	1.330327	108.5387
343.5	0.9606147	72.22186
344	0.7369468	69.86308
344.5	1.410497	32.61846
345	0.9556935	33.23075
345.5	0.6120687	-4.232484
346	0.6630741	23.15107
346.5	0.9645448	-7.824451
347	0.3954059	-65.31324
347.5	0.5004069	-45.71025
348	0.6577812	-10.39304
348.5	0.6373227	-57.71329
349	0.7213357	-91.0243
349.5	0.7274771	-104.1331
350	0.926867	-51.24826
