Source File Name:	11,2,2
Signal:	FFT - Vib Velocity - Mag. & Phase

Frequency	Magnitude	Phase
[ Hz ]	[ m/s ]	[ ° ]
20	18.12868	-54.44668
20.5	18.77115	-81.66593
21	15.0884	-102.7216
21.5	13.39211	-130.784
22	12.13329	-147.4798
22.5	10.49954	-164.2843
23	10.58334	-178.118
23.5	8.197268	160.9697
24	7.928977	145.9327
24.5	7.894537	130.8429
25	6.999467	114.9708
25.5	7.033802	99.85564
26	6.450975	79.46763
26.5	6.504946	67.881
27	6.259665	52.4318
27.5	6.179601	34.38853
28	5.856266	18.92511
28.5	5.835261	6.430843
29	5.806234	-10.49048
29.5	5.637477	-27.45265
30	5.694725	-38.78215
30.5	5.794826	-56.52884
31	4.955369	-75.87837
31.5	5.101298	-88.9597
32	4.527028	-102.6792
32.5	4.983967	-117.9904
33	4.158129	-132.603
33.5	5.189419	-154.4739
34	4.442654	-166.2035
34.5	4.566195	-179.8087
35	4.597167	167.4888
35.5	4.592132	144.412
36	4.257835	127.3358
36.5	4.430937	112.3689
37	4.039887	89.57735
37.5	4.416662	81.38737
38	4.347655	59.96716
38.5	4.162875	42.02144
39	4.04334	26.215
39.5	3.865421	7.145828
40	3.592939	-11.01875
40.5	3.175052	-29.66226
41	2.536527	-49.97105
41.5	2.076808	-50.27036
42	2.692593	-78.13066
42.5	1.6513	-96.16512
43	1.804157	-98.92307
43.5	1.148319	-122.0914
44	1.150389	-121.7265
44.5	0.8748979	-151.7609
45	1.099917	-130.7388
45.5	0.864169	-133.0739
46	0.7959669	-149.11
46.5	1.064109	-157.756
47	1.343259	174.2718
47.5	1.390386	174.0945
48	1.178175	133.033
48.5	0.8704073	132.97
49	1.558249	142.188
49.5	1.147274	116.8723
50	1.595589	108.6829
50.5	1.392162	107.9374
51	1.682996	99.08301
51.5	1.406562	61.65015
52	0.9297767	72.78387
52.5	1.662344	61.65493
53	1.353148	34.2975
53.5	1.743685	29.98321
54	1.057362	5.146357
54.5	1.258335	14.38476
55	1.591227	-18.7245
55.5	1.536362	-37.49493
56	1.339374	-58.03767
56.5	0.8946677	-59.93029
57	1.641224	-66.20313
57.5	1.149874	-78.74636
58	1.736404	-98.45721
58.5	1.407649	-104.8434
59	2.082182	-117.37
59.5	1.13163	-145.5916
60	1.532531	-146.5906
60.5	1.976095	-169.4295
61	1.651034	-178.8725
61.5	1.680176	176.8741
62	2.056107	150.4524
62.5	1.238087	152.3762
63	1.906522	135.8941
63.5	1.591992	125.0207
64	2.266792	108.6291
64.5	1.554754	92.84869
65	1.788656	78.77993
65.5	1.596151	65.72415
66	2.107339	62.49081
66.5	2.087647	36.40767
67	1.606243	26.44068
67.5	1.772915	20.13739
68	2.027883	10.88805
68.5	2.203592	-21.75837
69	2.133895	-18.97673
69.5	2.504133	-32.98075
70	2.362282	-53.93423
70.5	2.468554	-67.90659
71	2.601385	-74.58249
71.5	2.765777	-92.31142
72	2.93488	-95.90566
72.5	3.304124	-113.0394
73	2.752642	-124.2946
73.5	3.177337	-138.868
74	3.800396	-153.9467
74.5	3.631459	-163.1365
75	3.942809	-176.3982
75.5	4.590392	166.0443
76	5.028566	150.313
76.5	4.666185	136.6031
77	5.146936	122.8308
77.5	5.659284	109.0979
78	5.946388	92.0356
78.5	5.855208	76.24729
79	7.518819	60.68329
79.5	7.286586	44.0143
80	8.094024	29.49954
80.5	8.851122	10.76164
81	8.976474	-6.152545
81.5	9.695503	-24.41873
82	10.22961	-40.68414
82.5	10.74976	-54.94301
83	10.99138	-74.24665
83.5	11.80487	-91.20357
84	12.54434	-108.0381
84.5	12.63459	-124.693
85	13.24157	-142.7485
85.5	13.71793	-159.9311
86	14.02163	-177.6433
86.5	14.52658	165.0848
87	15.48977	146.9985
87.5	15.72228	127.5054
88	15.24306	110.1102
88.5	16.46922	93.2629
89	16.54177	73.80179
89.5	16.6442	57.29732
90	16.43113	39.39001
90.5	16.56841	22.93035
91	16.9497	5.014888
91.5	17.38759	-13.30164
92	17.42152	-29.44742
92.5	17.70312	-47.60164
93	17.33048	-64.89498
93.5	17.42459	-82.4789
94	17.10141	-100.2097
94.5	17.02099	-116.563
95	16.77119	-133.1927
95.5	16.99335	-151.4157
96	16.32941	-168.2498
96.5	16.81394	175.3
97	16.24051	157.5416
97.5	15.78813	142.1594
98	15.54237	125.8377
98.5	16.13285	108.3037
99	15.57675	91.25487
99.5	15.28525	76.28403
100	15.15234	60.27528
100.5	15.32928	45.13514
101	15.10779	25.75395
101.5	14.47306	12.15807
102	15.17732	-4.66605
102.5	14.11911	-19.10512
103	14.61639	-36.07552
103.5	14.09047	-54.2065
104	14.18161	-68.47103
104.5	14.10953	-84.48745
105	14.04237	-103.0654
105.5	13.16834	-117.8087
106	13.32129	-131.8136
106.5	13.19472	-148.1315
107	13.42958	-163.8975
107.5	12.91293	-179.6394
108	13.08137	162.7349
108.5	12.84472	146.3418
109	12.99031	130.4108
109.5	12.89608	116.1153
110	12.96038	98.80804
110.5	11.94661	83.21557
111	11.78737	67.22931
111.5	12.14743	53.76095
112	12.23617	35.56835
112.5	11.78641	20.3669
113	11.42667	3.532129
113.5	11.11559	-11.29862
114	11.15463	-24.98893
114.5	11.10453	-42.25402
115	10.53696	-58.56609
115.5	10.58454	-70.4182
116	10.82217	-90.59612
116.5	10.27525	-103.6311
117	10.99224	-119.6306
117.5	10.42235	-135.3346
118	10.42231	-151.8657
118.5	9.961445	-170.1803
119	9.779326	178.5748
119.5	9.982184	161.5757
120	9.527448	148.2221
120.5	9.552776	133.7134
121	9.963452	115.6182
121.5	9.070251	98.13473
122	10.09551	86.66767
122.5	9.692893	65.59122
123	8.835252	55.08374
123.5	9.210814	36.30936
124	9.054668	22.09061
124.5	8.528429	4.722183
125	8.501354	-7.630844
125.5	8.733171	-27.37814
126	8.188028	-41.7088
126.5	8.585948	-58.60057
127	8.22815	-72.62933
127.5	8.234235	-85.71645
128	7.881061	-104.6827
128.5	7.671981	-117.8887
129	8.204975	-136.6129
129.5	7.535479	-153.8342
130	7.87716	-163.5774
130.5	7.861714	177.8981
131	7.266293	160.9328
131.5	7.05272	144.6149
132	7.0672	129.6208
132.5	6.646839	115.1008
133	6.473364	99.88509
133.5	6.663788	82.5787
134	6.373297	67.3233
134.5	6.314462	53.52536
135	6.276873	35.38885
135.5	6.078527	20.31172
136	5.351464	4.170513
136.5	5.649876	-9.857653
137	5.933131	-25.8838
137.5	5.328967	-44.98892
138	4.750871	-52.49963
138.5	5.300927	-72.60606
139	4.916144	-92.27298
139.5	4.990551	-103.3
140	5.070308	-120.6775
140.5	4.407864	-137.2912
141	3.897433	-141.5749
141.5	4.479762	-163.9426
142	3.717452	-177.5458
142.5	4.407383	167.821
143	3.501168	146.8029
143.5	3.869974	136.0682
144	3.711384	118.2664
144.5	3.352026	102.391
145	3.352309	85.94794
145.5	2.482272	69.34245
146	2.323505	69.21348
146.5	2.86829	42.14186
147	2.504556	20.53182
147.5	2.454258	29.63349
148	2.688026	16.45428
148.5	2.581698	-10.92888
149	2.056489	-21.27164
149.5	2.08743	-37.90865
150	2.054041	-50.87395
150.5	2.197294	-67.06991
151	1.825819	-73.65545
151.5	1.456545	-98.99796
152	1.4335	-92.99171
152.5	2.306013	-99.45014
153	1.54438	-120.2212
153.5	1.914871	-138.7387
154	1.349657	-140.6234
154.5	2.062201	-158.2387
155	1.232916	165.2066
155.5	1.909858	-163.7038
156	1.592278	154.3173
156.5	0.8929186	138.4748
157	1.313786	145.9961
157.5	1.904064	121.8545
158	1.265353	104.6149
158.5	1.847861	97.21058
159	1.359558	89.79551
159.5	1.35626	77.88927
160	1.054026	36.12525
160.5	1.602408	53.9604
161	1.542618	36.44962
161.5	1.201304	28.06933
162	1.469444	9.272432
162.5	1.721082	6.547944
163	1.66535	-0.1817931
163.5	1.851607	-24.44795
164	1.620328	-42.0369
164.5	1.310233	-45.28031
165	2.070348	-61.3688
165.5	2.545069	-91.29646
166	1.5892	-108.3117
166.5	1.744522	-92.82213
167	1.989405	-121.22
167.5	1.361124	-131.5511
168	1.83665	-145.2167
168.5	2.01252	-161.2897
169	2.022626	-167.4297
169.5	2.044298	173.9944
170	2.003188	161.6061
170.5	2.585654	134.3812
171	2.111981	128.2402
171.5	2.486462	109.2082
172	2.107269	88.64062
172.5	2.173939	85.6947
173	2.508759	74.44429
173.5	2.680202	47.09734
174	1.884426	47.63237
174.5	3.053137	40.51183
175	2.4965	5.294721
175.5	2.972301	-3.789757
176	3.09816	-23.29169
176.5	3.141538	-35.64444
177	2.669607	-53.07946
177.5	2.675978	-67.34277
178	2.749928	-85.33771
178.5	2.462089	-100.0168
179	2.518038	-109.701
179.5	2.917748	-109.6892
180	3.224699	-137.7201
180.5	2.652857	-153.0412
181	3.395059	-163.5947
181.5	3.016906	175.5872
182	3.04215	163.8362
182.5	3.293096	142.1071
183	2.943188	124.2822
183.5	3.203346	113.7897
184	3.398461	102.0493
184.5	3.255313	89.10658
185	3.285908	65.03302
185.5	2.881191	54.29066
186	3.365896	41.62319
186.5	3.124269	26.18692
187	3.265757	18.66557
187.5	3.742044	2.52375
188	3.384416	-24.75073
188.5	3.088245	-32.77684
189	3.806862	-46.34536
189.5	3.97116	-63.43816
190	3.490633	-84.77128
190.5	3.340901	-96.87057
191	3.620844	-110.7125
191.5	3.660564	-126.3207
192	3.359604	-138.8361
192.5	3.666417	-157.0997
193	3.245961	-176.9537
193.5	3.768902	175.2077
194	3.858915	153.1655
194.5	3.522314	141.514
195	3.574717	124.0971
195.5	3.164531	112.7138
196	3.665967	91.96775
196.5	3.373093	83.0112
197	4.085159	73.45275
197.5	3.868357	43.51619
198	3.387861	39.03569
198.5	3.634923	20.9128
199	3.764427	2.262593
199.5	3.466099	-14.39125
200	3.389413	-21.10742
200.5	3.086843	-47.50437
201	3.315755	-53.78674
201.5	3.47654	-72.29414
202	3.181911	-81.62883
202.5	3.525983	-95.46059
203	3.602619	-117.3895
203.5	3.232823	-132.1405
204	3.55698	-146.3619
204.5	3.608476	-159.5906
205	3.441299	-179.5991
205.5	2.772159	162.6041
206	3.228723	151.8987
206.5	3.222232	141.7442
207	3.441303	121.0922
207.5	2.959189	109.9585
208	3.401193	103.074
208.5	2.964155	83.9813
209	3.655425	65.01181
209.5	3.332517	48.7813
210	3.010768	44.78828
210.5	3.417201	22.45939
211	3.349171	-0.2762863
211.5	3.089758	-10.54428
212	3.072078	-25.56223
212.5	3.054296	-37.94804
213	2.943801	-51.28381
213.5	3.044631	-71.53281
214	2.983863	-84.87979
214.5	3.515999	-100.5235
215	3.047599	-116.2352
215.5	2.856909	-130.3039
216	3.280957	-141.4544
216.5	3.092219	-166.1357
217	2.699552	-170.9264
217.5	3.2842	173.6215
218	2.778473	168.6741
218.5	3.330191	143.2205
219	3.079268	120.0979
219.5	3.518953	108.3798
220	2.760996	91.50325
220.5	2.915817	80.34343
221	2.59089	64.29604
221.5	2.580781	56.51291
222	2.692216	40.75718
222.5	2.733425	29.04366
223	2.785746	8.826061
223.5	2.533067	-1.060731
224	3.233812	-27.50206
224.5	2.639874	-42.78308
225	3.012098	-47.95644
225.5	2.680667	-66.54258
226	2.730433	-84.01122
226.5	2.72728	-96.32669
227	2.804377	-113.9027
227.5	2.970321	-127.238
228	2.966482	-138.8842
228.5	2.570894	-159.2554
229	2.583425	-174.3565
229.5	2.553327	178.0642
230	2.856899	162.5975
230.5	2.813902	146.4233
231	2.387481	123.4456
231.5	2.401248	117.8308
232	2.378125	96.20455
232.5	2.924786	82.09325
233	2.222431	67.68351
233.5	2.654153	57.50166
234	2.103747	19.54575
234.5	2.427793	35.37278
235	2.651917	12.65693
235.5	2.334941	-4.871349
236	2.321297	-29.98869
236.5	2.287735	-37.82809
237	2.101436	-63.69637
237.5	2.437575	-69.58419
238	2.382734	-78.03391
238.5	2.448865	-85.94511
239	2.195789	-113.4998
239.5	2.121586	-120.2846
240	2.210758	-144.5536
240.5	2.050447	-146.8564
241	2.40011	-167.7775
241.5	2.116228	167.6861
242	1.982568	147.2207
242.5	1.680707	147.5514
243	2.099864	133.5738
243.5	1.143562	112.357
244	1.70053	97.15894
244.5	1.331211	83.44781
245	1.894175	76.56821
245.5	1.480565	57.6228
246	2.164326	51.62617
246.5	1.489428	31.6194
247	1.65952	13.79928
247.5	1.807071	-2.407019
248	2.006279	-18.71807
248.5	1.304254	-24.26237
249	1.423947	-39.31417
249.5	1.429815	-52.71089
250	1.634597	-74.4476
250.5	1.486491	-72.94633
251	1.683733	-98.17715
251.5	1.44786	-95.84488
252	1.638359	-117.961
252.5	1.589083	-124.6404
253	1.751201	-162.0375
253.5	1.290955	-135.7852
254	1.864798	170.7009
254.5	1.227661	130.7508
255	1.170353	136.2817
255.5	1.310673	125.7973
256	1.557735	124.9274
256.5	1.081651	109.1719
257	1.035986	112.3336
257.5	1.255664	75.36831
258	1.625339	68.16152
258.5	1.643622	40.41763
259	1.522596	27.6496
259.5	1.229428	16.70248
260	1.554363	11.1199
260.5	1.29663	-24.14924
261	0.879343	-9.332568
261.5	1.240015	-19.88002
262	0.9685448	-43.76496
262.5	0.7513437	-71.86774
263	1.575896	-61.17537
263.5	1.242863	-75.1673
264	1.721613	-90.21214
264.5	1.071408	-126.7099
265	1.430368	-124.4845
265.5	1.179662	-178.0926
266	0.9229081	-165.2861
266.5	1.014825	-161.9681
267	1.133792	-179.8365
267.5	1.062777	150.9752
268	1.153046	125.5963
268.5	1.118517	122.0149
269	1.617024	112.8467
269.5	1.184899	97.71851
270	1.299496	75.20413
270.5	0.7636039	75.76539
271	1.321014	72.4394
271.5	1.161944	49.10293
272	1.043991	41.86593
272.5	0.921709	29.23011
273	1.849538	-1.300855
273.5	1.331574	-36.63011
274	1.112238	-12.19813
274.5	1.03335	-41.09591
275	0.6915485	-42.34637
275.5	0.6579459	-86.92665
276	1.096361	-69.79963
276.5	1.437354	-129.2647
277	0.9506704	-91.24496
277.5	1.254909	-136.5652
278	0.7698633	-125.7896
278.5	1.328761	-172.8206
279	0.6645137	-154.6176
279.5	1.087017	161.4277
280	0.7137462	169.9984
280.5	1.227969	146.8495
281	1.058846	121.5748
281.5	1.34443	111.5781
282	1.334281	119.2741
282.5	0.878791	79.79768
283	0.655022	69.33764
283.5	0.7743368	64.46664
284	1.124935	63.39162
284.5	0.8365978	12.96147
285	0.6620182	62.65691
285.5	0.6361333	10.13869
286	0.698447	-6.772099
286.5	0.757123	-49.6445
287	0.724573	-32.58524
287.5	0.6914319	-26.17718
288	0.5929264	-42.15175
288.5	0.8486962	-62.84616
289	0.7255834	-79.87309
289.5	0.6703718	-87.66904
290	1.127273	-103.8645
290.5	0.8365427	-137.2567
291	0.5459427	-138.4206
291.5	1.010658	-140.166
292	1.67057	-142.9629
292.5	1.171896	179.6709
293	0.9182991	-164.2749
293.5	1.270972	146.4368
294	0.871465	135.9156
294.5	1.34626	114.9705
295	1.393861	110.2066
295.5	1.159311	75.20058
296	0.650148	151.896
296.5	1.1714	67.44463
297	0.6556299	60.87359
297.5	1.178129	42.5031
298	0.5666105	47.67311
298.5	1.447805	1.065377
299	1.032486	-14.78533
299.5	1.301194	-34.2122
300	1.232847	-46.48103
300.5	1.140863	-52.75446
301	0.8525456	-63.74546
301.5	1.555969	-106.594
302	0.4715406	-139.8384
302.5	1.279301	-69.60045
303	1.490779	-127.0361
303.5	0.7341739	-140.4668
304	0.9426005	-136.2235
304.5	1.149002	-178.2555
305	1.159407	172.0345
305.5	1.15453	163.1523
306	0.660574	154.6665
306.5	0.5973752	108.2593
307	0.6856655	132.701
307.5	0.8916049	109.5745
308	0.427089	65.92847
308.5	0.8909383	100.6229
309	0.7561563	75.6011
309.5	1.060167	47.92784
310	0.7719972	-1.92113
310.5	1.04523	55.0703
311	0.6779676	-3.852196
311.5	0.5463794	-34.72097
312	0.6463807	-14.84915
312.5	1.095122	-41.5309
313	0.6538997	-46.71788
313.5	1.190098	-16.67659
314	0.9504225	-45.1811
314.5	1.039438	-68.06567
315	0.6652322	-98.59082
315.5	0.9800765	-77.95404
316	0.9742739	-100.0743
316.5	0.9084544	-124.7157
317	0.8989353	-130.6627
317.5	1.284143	-153.235
318	0.8917736	166.2395
318.5	1.247505	-174.2195
319	1.030379	150.7087
319.5	0.2914302	137.3466
320	1.051886	139.1893
320.5	1.426822	119.5251
321	0.9895316	92.21349
321.5	1.130347	114.6552
322	1.487126	62.77443
322.5	0.8857345	51.5685
323	1.572793	39.65732
323.5	1.238048	26.18575
324	1.390959	7.822214
324.5	0.6172962	1.659422
325	1.408343	19.96048
325.5	1.950177	-30.57969
326	1.569348	-42.62704
326.5	1.769265	-50.19424
327	1.481126	-85.7197
327.5	1.314794	-98.45901
328	1.126226	-109.8131
328.5	1.475693	-125.1786
329	0.6984356	-162.3324
329.5	0.9757452	-122.4767
330	1.277023	176.9276
330.5	1.15581	-171.6097
331	1.546864	160.1828
331.5	1.532817	158.8833
332	1.310256	133.1709
332.5	1.202056	127.8753
333	1.546778	105.4191
333.5	1.411663	87.19922
334	1.689518	78.16129
334.5	1.430534	67.31075
335	1.516532	32.36551
335.5	1.11963	1.976785
336	1.275775	38.02199
336.5	1.310588	18.4502
337	1.226282	-0.09005018
337.5	1.648184	-3.699455
338	1.714764	-49.03652
338.5	1.18217	-54.60199
339	2.07281	-64.29567
339.5	1.340736	-99.50331
340	1.242825	-104.3996
340.5	1.170884	-149.3203
341	1.02459	-122.0115
341.5	1.279352	-140.0281
342	1.428218	-153.053
342.5	1.355932	-171.7108
343	1.826954	170.5774
343.5	1.750678	140.3891
344	1.713925	134.6368
344.5	1.759389	120.094
345	0.9645934	89.58376
345.5	1.278747	94.1383
346	1.25657	78.79977
346.5	1.228598	51.71228
347	0.8698874	57.78189
347.5	1.087365	57.82425
348	0.9066975	17.49355
348.5	1.517356	9.782185
349	1.309632	-23.94247
349.5	1.023804	-6.796173
350	1.181833	-43.02863
