Source File Name:	3,1,2
Signal:	FFT - Ref1 Force - Mag. & Phase

Frequency	Magnitude	Phase
[ Hz ]	[ N ]	[ ° ]
20	0.0001141924	146.4518
20.5	0.0001141885	132.1111
21	0.0001138016	117.7269
21.5	0.000113826	103.168
22	0.0001134819	88.90957
22.5	0.0001132314	74.19516
23	0.0001135267	60.1301
23.5	0.0001135871	45.5998
24	0.0001136368	31.16836
24.5	0.0001134762	16.9032
25	0.0001135309	2.589519
25.5	0.0001138353	-11.69248
26	0.000113722	-26.14252
26.5	0.0001136663	-40.43565
27	0.0001137415	-54.73428
27.5	0.0001136463	-68.95478
28	0.0001136778	-83.15405
28.5	0.000113675	-97.47189
29	0.0001135884	-111.8005
29.5	0.0001132957	-125.9647
30	0.000113181	-140.3347
30.5	0.0001130605	-154.643
31	0.0001126707	-169.0723
31.5	0.0001126971	176.7034
32	0.0001122205	162.3474
32.5	0.0001119676	147.9585
33	0.0001120039	133.5699
33.5	0.0001116554	119.049
34	0.0001115659	104.7881
34.5	0.0001114685	90.5319
35	0.0001112775	75.99586
35.5	0.0001111247	61.50057
36	0.0001110419	47.29939
36.5	0.0001110862	33.01125
37	0.0001109659	18.509
37.5	0.0001110144	4.210165
38	0.0001109716	-10.02058
38.5	0.0001109589	-24.3227
39	0.0001110929	-38.70291
39.5	0.0001110247	-52.91122
40	0.0001108084	-67.4725
40.5	0.0001107097	-81.68034
41	0.0001105582	-95.93315
41.5	0.0001105115	-110.2478
42	0.0001101856	-124.5203
42.5	0.0001100613	-138.7908
43	0.0001097625	-153.1461
43.5	0.0001093925	-167.5511
44	0.0001093166	178.1736
44.5	0.0001093155	163.9075
45	0.0001088838	149.5395
45.5	0.0001087753	135.1266
46	0.0001085263	120.7877
46.5	0.0001083993	106.4439
47	0.0001081482	92.1344
47.5	0.0001081603	77.67782
48	0.0001080128	63.46423
48.5	0.000107864	49.02864
49	0.000107802	34.6454
49.5	0.0001075441	20.24317
50	0.0001074742	6.022735
50.5	0.000107423	-8.340313
51	0.0001073926	-22.74631
51.5	0.0001072345	-36.992
52	0.0001070051	-51.33612
52.5	0.0001067737	-65.52345
53	0.0001068252	-79.9481
53.5	0.0001066331	-94.13496
54	0.0001061873	-108.595
54.5	0.000105983	-122.7775
55	0.000105881	-137.1566
55.5	0.0001056634	-151.5216
56	0.0001054009	-165.784
56.5	0.0001051383	179.8727
57	0.0001048914	165.5149
57.5	0.0001045454	151.1791
58	0.0001043766	136.9118
58.5	0.0001043285	122.5215
59	0.0001037956	108.1451
59.5	0.0001039906	93.75264
60	0.0001037428	79.37489
60.5	0.000103528	65.0823
61	0.0001032413	50.76339
61.5	0.0001032356	36.38578
62	0.0001029663	21.92087
62.5	0.0001029224	7.686767
63	0.0001026391	-6.584545
63.5	0.0001024428	-20.89579
64	0.0001022052	-35.16635
64.5	0.0001028044	-49.69977
65	0.0001021835	-63.79124
65.5	0.0001016459	-78.11135
66	0.0001016469	-92.34431
66.5	0.00010132	-106.6993
67	0.0001011304	-121.0273
67.5	0.0001008057	-135.2372
68	0.0001005626	-149.6534
68.5	0.0001002585	-163.9974
69	0.0001002366	-178.1698
69.5	9.976125e-5	167.4032
70	9.959853e-5	153.0583
70.5	9.899398e-5	138.6631
71	9.918868e-5	124.3548
71.5	9.867296e-5	110.0954
72	9.851175e-5	95.63965
72.5	9.840164e-5	81.36109
73	9.793601e-5	66.98811
73.5	9.790148e-5	52.57373
74	9.773018e-5	38.2265
74.5	9.757093e-5	24.00314
75	9.723855e-5	9.623085
75.5	9.721313e-5	-4.763819
76	9.692182e-5	-19.06969
76.5	9.675144e-5	-33.25351
77	9.674026e-5	-47.61164
77.5	9.631273e-5	-61.92866
78	9.602432e-5	-76.22852
78.5	9.581309e-5	-90.57665
79	9.557105e-5	-104.8406
79.5	9.534174e-5	-119.1203
80	9.528562e-5	-133.4438
80.5	9.492919e-5	-147.7491
81	9.442673e-5	-162.1063
81.5	9.422865e-5	-176.3811
82	9.393541e-5	169.1766
82.5	9.377338e-5	154.9918
83	9.348638e-5	140.6526
83.5	9.310476e-5	126.2304
84	9.276342e-5	111.9084
84.5	9.270827e-5	97.67472
85	9.256216e-5	83.3748
85.5	9.220513e-5	68.89307
86	9.200399e-5	54.54451
86.5	9.179289e-5	40.26559
87	9.162727e-5	25.98655
87.5	9.132717e-5	11.65284
88	9.114359e-5	-2.678525
88.5	9.090656e-5	-16.96131
89	9.06601e-5	-31.27586
89.5	9.05234e-5	-45.47492
90	9.009026e-5	-59.85633
90.5	9.005845e-5	-74.08192
91	8.962882e-5	-88.41679
91.5	8.933974e-5	-102.6884
92	8.901973e-5	-116.8945
92.5	8.890554e-5	-131.2457
93	8.852043e-5	-145.5436
93.5	8.820154e-5	-159.9063
94	8.810405e-5	-174.1453
94.5	8.758053e-5	171.571
95	8.730865e-5	157.2572
95.5	8.722437e-5	142.8829
96	8.673937e-5	128.4808
96.5	8.649506e-5	114.1748
97	8.625571e-5	99.89778
97.5	8.595877e-5	85.49697
98	8.569662e-5	71.28714
98.5	8.541267e-5	56.92724
99	8.511254e-5	42.59956
99.5	8.487748e-5	28.20427
100	8.470879e-5	14.11479
100.5	8.443471e-5	-0.2453951
101	8.436472e-5	-14.57727
101.5	8.396513e-5	-28.86785
102	8.375223e-5	-43.20697
102.5	8.347395e-5	-57.49629
103	8.319198e-5	-71.6898
103.5	8.298794e-5	-86.04315
104	8.274484e-5	-100.3459
104.5	8.237888e-5	-114.6911
105	8.212547e-5	-128.799
105.5	8.180385e-5	-143.1208
106	8.146794e-5	-157.5053
106.5	8.11567e-5	-171.7931
107	8.087674e-5	173.7991
107.5	8.056379e-5	159.6584
108	8.022856e-5	145.2255
108.5	7.996037e-5	131.0054
109	7.972297e-5	116.6499
109.5	7.93139e-5	102.3372
110	7.918232e-5	88.02367
110.5	7.879625e-5	73.68813
111	7.851417e-5	59.42505
111.5	7.838427e-5	45.04461
112	7.818548e-5	30.7693
112.5	7.792461e-5	16.45039
113	7.757539e-5	2.214578
113.5	7.730914e-5	-12.15024
114	7.724557e-5	-26.44582
114.5	7.673673e-5	-40.56147
115	7.659385e-5	-54.87634
115.5	7.640401e-5	-69.29734
116	7.599694e-5	-83.50093
116.5	7.570998e-5	-97.69907
117	7.539587e-5	-112.0354
117.5	7.513698e-5	-126.3849
118	7.478387e-5	-140.6752
118.5	7.464649e-5	-154.867
119	7.422362e-5	-169.1549
119.5	7.370357e-5	176.4877
120	7.367029e-5	162.1829
120.5	7.324958e-5	147.8955
121	7.302754e-5	133.6402
121.5	7.263567e-5	119.2942
122	7.239512e-5	105.0575
122.5	7.215141e-5	90.72105
123	7.185322e-5	76.51492
123.5	7.148399e-5	62.09759
124	7.128667e-5	47.72591
124.5	7.107649e-5	33.60007
125	7.087086e-5	19.2014
125.5	7.059512e-5	5.070627
126	7.023742e-5	-9.442903
126.5	6.998702e-5	-23.56297
127	6.964799e-5	-37.76952
127.5	6.942851e-5	-52.08046
128	6.934513e-5	-66.48976
128.5	6.904842e-5	-80.81045
129	6.836109e-5	-94.781
129.5	6.825191e-5	-109.1047
130	6.801544e-5	-123.3788
130.5	6.762657e-5	-137.6851
131	6.731233e-5	-151.9286
131.5	6.695015e-5	-166.139
132	6.68086e-5	179.5749
132.5	6.637294e-5	165.2479
133	6.63998e-5	150.8461
133.5	6.589598e-5	136.7208
134	6.563971e-5	122.4053
134.5	6.543314e-5	108.0331
135	6.496179e-5	93.63033
135.5	6.495909e-5	79.41684
136	6.453391e-5	65.25158
136.5	6.437343e-5	50.89651
137	6.404037e-5	36.64582
137.5	6.368336e-5	22.49516
138	6.351343e-5	8.027326
138.5	6.330107e-5	-6.176246
139	6.300578e-5	-20.32448
139.5	6.273398e-5	-34.63148
140	6.245181e-5	-48.72263
140.5	6.207299e-5	-63.22781
141	6.191682e-5	-77.38871
141.5	6.150109e-5	-91.56917
142	6.137433e-5	-105.8963
142.5	6.116297e-5	-119.9967
143	6.065059e-5	-134.2868
143.5	6.046702e-5	-148.5349
144	6.020316e-5	-162.9583
144.5	5.989029e-5	-177.1489
145	5.954627e-5	168.7084
145.5	5.927935e-5	154.3148
146	5.902944e-5	139.9594
146.5	5.857303e-5	125.8093
147	5.832731e-5	111.5252
147.5	5.821721e-5	97.25264
148	5.780992e-5	82.97841
148.5	5.76649e-5	68.67625
149	5.729243e-5	54.29767
149.5	5.722103e-5	40.2614
150	5.690836e-5	26.01825
150.5	5.664972e-5	11.67959
151	5.630523e-5	-2.594236
151.5	5.604029e-5	-16.74494
152	5.58619e-5	-30.98581
152.5	5.580941e-5	-45.24548
153	5.535236e-5	-59.37634
153.5	5.509322e-5	-73.69537
154	5.473856e-5	-87.94102
154.5	5.465532e-5	-102.2007
155	5.410851e-5	-116.3054
155.5	5.397743e-5	-130.7102
156	5.365994e-5	-144.7961
156.5	5.334189e-5	-158.9537
157	5.301451e-5	-173.3108
157.5	5.288748e-5	172.4405
158	5.263565e-5	158.2179
158.5	5.222288e-5	144.0555
159	5.196904e-5	129.6357
159.5	5.18546e-5	115.3873
160	5.158397e-5	101.2843
160.5	5.114933e-5	86.86794
161	5.103213e-5	72.74839
161.5	5.07728e-5	58.44038
162	5.065033e-5	44.28575
162.5	5.016618e-5	29.87
163	5.006259e-5	15.75402
163.5	4.973251e-5	1.549182
164	4.959701e-5	-12.66463
164.5	4.932114e-5	-26.85846
165	4.916608e-5	-41.10416
165.5	4.887873e-5	-55.35872
166	4.852351e-5	-69.51541
166.5	4.837477e-5	-83.51212
167	4.797049e-5	-97.89991
167.5	4.774693e-5	-112.1471
168	4.768136e-5	-126.3448
168.5	4.725193e-5	-140.4174
169	4.687603e-5	-154.897
169.5	4.674565e-5	-168.9303
170	4.658285e-5	176.8592
170.5	4.622389e-5	162.5747
171	4.586198e-5	148.1857
171.5	4.578224e-5	134.2607
172	4.53361e-5	119.8679
172.5	4.505496e-5	105.522
173	4.49554e-5	91.43386
173.5	4.480354e-5	77.2063
174	4.458778e-5	62.882
174.5	4.422056e-5	48.59714
175	4.405595e-5	34.46715
175.5	4.377632e-5	20.34342
176	4.348672e-5	6.23494
176.5	4.343518e-5	-7.993094
177	4.310924e-5	-22.23388
177.5	4.288651e-5	-36.49212
178	4.279827e-5	-50.52992
178.5	4.249556e-5	-64.675
179	4.207759e-5	-78.93819
179.5	4.187825e-5	-93.03666
180	4.188863e-5	-107.221
180.5	4.148765e-5	-121.4536
181	4.107718e-5	-135.641
181.5	4.101942e-5	-149.7584
182	4.074788e-5	-164.0727
182.5	4.047663e-5	-178.0676
183	4.026164e-5	167.5854
183.5	3.999432e-5	153.4154
184	3.978891e-5	139.0272
184.5	3.953528e-5	125.0315
185	3.941604e-5	110.8146
185.5	3.911886e-5	96.43584
186	3.896038e-5	82.26014
186.5	3.876825e-5	68.10686
187	3.84706e-5	53.85665
187.5	3.829025e-5	39.81558
188	3.795734e-5	25.47105
188.5	3.800184e-5	11.43478
189	3.759779e-5	-2.736689
189.5	3.748536e-5	-17.04289
190	3.733559e-5	-31.14228
190.5	3.700407e-5	-45.18703
191	3.68116e-5	-59.42697
191.5	3.672495e-5	-73.55965
192	3.648397e-5	-87.42797
192.5	3.62165e-5	-101.807
193	3.602866e-5	-115.8257
193.5	3.583438e-5	-130.0749
194	3.5444e-5	-144.2828
194.5	3.543295e-5	-158.6932
195	3.520837e-5	-172.6853
195.5	3.493771e-5	173.2233
196	3.471767e-5	158.8917
196.5	3.43253e-5	144.836
197	3.428527e-5	130.4185
197.5	3.412551e-5	116.6196
198	3.383321e-5	102.2335
198.5	3.355934e-5	87.73603
199	3.342007e-5	74.10759
199.5	3.328622e-5	59.84189
200	3.32196e-5	45.51503
200.5	3.290393e-5	31.33869
201	3.278509e-5	17.2697
201.5	3.26247e-5	3.304466
202	3.244538e-5	-11.18265
202.5	3.224006e-5	-25.0253
203	3.200298e-5	-39.19449
203.5	3.187756e-5	-53.52979
204	3.161797e-5	-67.42781
204.5	3.159243e-5	-81.66196
205	3.132445e-5	-95.71535
205.5	3.096712e-5	-109.8486
206	3.082593e-5	-123.9471
206.5	3.083755e-5	-138.0672
207	3.042292e-5	-152.422
207.5	3.027304e-5	-166.3999
208	3.007058e-5	179.4083
208.5	3.000213e-5	165.0027
209	2.969688e-5	151.2239
209.5	2.955017e-5	137.0688
210	2.947282e-5	122.8243
210.5	2.912627e-5	108.5034
211	2.897297e-5	94.43663
211.5	2.887428e-5	80.16597
212	2.871114e-5	66.1163
212.5	2.843218e-5	52.15878
213	2.831681e-5	37.80713
213.5	2.826189e-5	23.48274
214	2.800494e-5	9.712558
214.5	2.790004e-5	-4.43519
215	2.779698e-5	-18.53493
215.5	2.748977e-5	-32.7046
216	2.741624e-5	-46.61585
216.5	2.729148e-5	-60.92447
217	2.707241e-5	-74.87669
217.5	2.690865e-5	-88.89999
218	2.674988e-5	-103.412
218.5	2.65507e-5	-117.2314
219	2.625499e-5	-131.2713
219.5	2.633108e-5	-145.399
220	2.617567e-5	-159.7445
220.5	2.572914e-5	-173.5535
221	2.565575e-5	172.021
221.5	2.549484e-5	157.8777
222	2.536015e-5	143.7214
222.5	2.51664e-5	129.8361
223	2.506758e-5	115.5927
223.5	2.488944e-5	101.364
224	2.471586e-5	87.40775
224.5	2.459113e-5	73.18919
225	2.453329e-5	58.95092
225.5	2.44356e-5	45.22182
226	2.416272e-5	31.04225
226.5	2.411422e-5	16.64564
227	2.396943e-5	3.044597
227.5	2.376311e-5	-11.2515
228	2.37093e-5	-25.58863
228.5	2.35272e-5	-39.31905
229	2.343207e-5	-53.40643
229.5	2.32136e-5	-67.71588
230	2.311864e-5	-81.59493
230.5	2.292023e-5	-95.62193
231	2.28468e-5	-109.8924
231.5	2.257496e-5	-123.8697
232	2.254809e-5	-137.9888
232.5	2.241146e-5	-152.024
233	2.224104e-5	-166.3272
233.5	2.204089e-5	179.7437
234	2.189542e-5	165.7265
234.5	2.171333e-5	151.6716
235	2.169342e-5	137.2838
235.5	2.147461e-5	123.3697
236	2.132596e-5	109.0123
236.5	2.118182e-5	95.1441
237	2.118187e-5	80.98622
237.5	2.09532e-5	66.62549
238	2.103498e-5	52.6775
238.5	2.09029e-5	38.90696
239	2.073863e-5	24.5413
239.5	2.055891e-5	10.70565
240	2.046487e-5	-3.498745
240.5	2.048624e-5	-17.76517
241	2.031966e-5	-31.62309
241.5	2.019356e-5	-45.41366
242	1.989071e-5	-59.78907
242.5	1.991336e-5	-73.95354
243	1.974018e-5	-87.68066
243.5	1.960769e-5	-101.5564
244	1.94487e-5	-116.0794
244.5	1.929231e-5	-129.6348
245	1.904243e-5	-143.7838
245.5	1.905642e-5	-158.1424
246	1.892118e-5	-171.9569
246.5	1.872243e-5	173.8334
247	1.869368e-5	159.9316
247.5	1.859779e-5	145.7021
248	1.851151e-5	131.8216
248.5	1.837154e-5	117.0975
249	1.83336e-5	103.4616
249.5	1.820909e-5	89.26053
250	1.810843e-5	75.08872
250.5	1.806594e-5	60.73922
251	1.790636e-5	46.931
251.5	1.776764e-5	32.67674
252	1.773346e-5	18.77703
252.5	1.75314e-5	4.482763
253	1.752704e-5	-9.193364
253.5	1.735707e-5	-23.39912
254	1.717364e-5	-37.21088
254.5	1.707581e-5	-51.12919
255	1.69689e-5	-64.94859
255.5	1.702668e-5	-79.40462
256	1.680814e-5	-92.74329
256.5	1.664422e-5	-106.7654
257	1.657081e-5	-120.9897
257.5	1.678379e-5	-134.8587
258	1.656092e-5	-149.1644
258.5	1.628552e-5	-163.8184
259	1.629539e-5	-177.1487
259.5	1.609217e-5	168.2085
260	1.608415e-5	153.9296
260.5	1.581073e-5	139.8817
261	1.590333e-5	126.0683
261.5	1.565858e-5	112.057
262	1.56049e-5	97.61631
262.5	1.557267e-5	83.92919
263	1.537495e-5	69.97837
263.5	1.535017e-5	55.44315
264	1.533145e-5	41.53122
264.5	1.515523e-5	27.72444
265	1.509982e-5	13.8297
265.5	1.507438e-5	-0.3294625
266	1.512677e-5	-14.39274
266.5	1.485169e-5	-28.47818
267	1.476324e-5	-42.77458
267.5	1.48025e-5	-56.509
268	1.473401e-5	-70.23319
268.5	1.446264e-5	-84.54541
269	1.444695e-5	-98.3549
269.5	1.422693e-5	-112.0514
270	1.420997e-5	-127.0206
270.5	1.420749e-5	-140.6144
271	1.397496e-5	-154.4368
271.5	1.393327e-5	-168.1844
272	1.385879e-5	177.2832
272.5	1.378581e-5	163.3039
273	1.360489e-5	149.128
273.5	1.358578e-5	135.5874
274	1.35507e-5	120.9563
274.5	1.3541e-5	106.7676
275	1.340481e-5	92.7703
275.5	1.318433e-5	78.4339
276	1.327184e-5	64.469
276.5	1.302068e-5	50.71304
277	1.30819e-5	36.57721
277.5	1.297087e-5	22.72721
278	1.286224e-5	8.658922
278.5	1.284717e-5	-5.102679
279	1.275416e-5	-19.25285
279.5	1.27341e-5	-33.21698
280	1.263188e-5	-47.11396
280.5	1.261984e-5	-61.16585
281	1.246593e-5	-75.37705
281.5	1.237497e-5	-88.56954
282	1.229434e-5	-102.8721
282.5	1.221627e-5	-117.0743
283	1.208945e-5	-131.5209
283.5	1.215602e-5	-145.0814
284	1.195495e-5	-159.3274
284.5	1.188111e-5	-173.3302
285	1.173376e-5	172.2284
285.5	1.17017e-5	158.6521
286	1.158876e-5	144.2344
286.5	1.157469e-5	130.6872
287	1.138714e-5	116.8802
287.5	1.145086e-5	102.2247
288	1.143964e-5	88.56654
288.5	1.125912e-5	73.98776
289	1.134942e-5	60.07593
289.5	1.121976e-5	46.15028
290	1.123197e-5	31.86781
290.5	1.108276e-5	17.82149
291	1.098984e-5	4.128222
291.5	1.101104e-5	-9.784606
292	1.089511e-5	-23.37498
292.5	1.08382e-5	-37.8834
293	1.072994e-5	-52.19054
293.5	1.072755e-5	-65.28391
294	1.062796e-5	-79.09924
294.5	1.068743e-5	-93.89796
295	1.051713e-5	-107.4346
295.5	1.040138e-5	-121.2568
296	1.037438e-5	-135.9227
296.5	1.031705e-5	-149.3474
297	1.011045e-5	-163.7072
297.5	1.008925e-5	-178.0518
298	1.003486e-5	167.9629
298.5	9.997646e-6	154.0494
299	9.928249e-6	140.1055
299.5	9.851456e-6	125.8291
300	9.701861e-6	112.1153
300.5	9.8017e-6	98.11234
301	9.571479e-6	83.7732
301.5	9.596687e-6	69.71653
302	9.654042e-6	55.90976
302.5	9.503769e-6	42.39111
303	9.397578e-6	27.1984
303.5	9.403062e-6	14.06243
304	9.391098e-6	-0.3092155
304.5	9.369767e-6	-14.41884
305	9.20468e-6	-27.98193
305.5	9.186962e-6	-42.23121
306	9.048574e-6	-55.70617
306.5	9.088815e-6	-69.86565
307	8.887897e-6	-82.53456
307.5	8.894116e-6	-97.56608
308	8.909119e-6	-111.411
308.5	8.854729e-6	-124.2967
309	8.663211e-6	-140.0795
309.5	8.770109e-6	-153.7106
310	8.562097e-6	-166.7225
310.5	8.479313e-6	178.1748
311	8.39011e-6	164.4033
311.5	8.356816e-6	150.0017
312	8.382992e-6	137.2189
312.5	8.304629e-6	121.4778
313	8.335942e-6	108.3529
313.5	8.126032e-6	94.20477
314	8.247948e-6	80.22128
314.5	8.096444e-6	66.07896
315	8.066654e-6	52.39775
315.5	8.01708e-6	38.79453
316	7.977034e-6	23.80776
316.5	7.938188e-6	10.23305
317	7.789142e-6	-3.554517
317.5	7.862543e-6	-17.13752
318	7.850396e-6	-31.35664
318.5	7.752195e-6	-45.16513
319	7.662843e-6	-59.10122
319.5	7.59715e-6	-72.80524
320	7.587134e-6	-87.33835
320.5	7.473345e-6	-100.4943
321	7.467379e-6	-115.6405
321.5	7.441321e-6	-129.0142
322	7.127663e-6	-141.7601
322.5	7.22496e-6	-156.1946
323	7.14495e-6	-170.807
323.5	7.111497e-6	175.421
324	7.047746e-6	161.3343
324.5	7.051896e-6	147.0654
325	6.950124e-6	133.8347
325.5	6.935589e-6	120.249
326	6.873707e-6	104.7808
326.5	6.782635e-6	91.03919
327	6.708189e-6	77.96593
327.5	6.871322e-6	63.55116
328	6.814368e-6	50.03352
328.5	6.736916e-6	35.60242
329	6.74198e-6	21.37518
329.5	6.560817e-6	7.591825
330	6.518066e-6	-5.828534
330.5	6.532527e-6	-20.11914
331	6.435383e-6	-34.05006
331.5	6.414992e-6	-46.98445
332	6.364122e-6	-60.50106
332.5	6.345037e-6	-75.86137
333	6.240622e-6	-88.2691
333.5	6.200074e-6	-102.4721
334	6.203028e-6	-116.2351
334.5	6.111311e-6	-130.4919
335	6.128451e-6	-144.6159
335.5	5.98274e-6	-158.9789
336	5.956148e-6	-172.7991
336.5	5.929864e-6	174.0764
337	6.031501e-6	159.7905
337.5	5.84887e-6	146.0606
338	5.926777e-6	131.2182
338.5	5.720062e-6	117.7963
339	5.815894e-6	103.509
339.5	5.752112e-6	90.40644
340	5.737645e-6	75.69079
340.5	5.678786e-6	61.82491
341	5.620513e-6	48.01394
341.5	5.650805e-6	34.06633
342	5.496694e-6	19.65113
342.5	5.50607e-6	6.788725
343	5.481605e-6	-6.568843
343.5	5.459095e-6	-20.25861
344	5.244403e-6	-34.56311
344.5	5.426632e-6	-47.84024
345	5.355037e-6	-60.883
345.5	5.348977e-6	-75.24603
346	5.254602e-6	-88.89178
346.5	5.173002e-6	-103.6502
347	5.16635e-6	-116.3947
347.5	5.151698e-6	-130.317
348	5.086071e-6	-144.8912
348.5	5.051169e-6	-159.777
349	4.966749e-6	-172.2622
349.5	5.025511e-6	174.5603
350	5.022719e-6	159.6393
