Source File Name:	5,2,2
Signal:	FFT - Vib Velocity - Mag. & Phase

Frequency	Magnitude	Phase
[ Hz ]	[ m/s ]	[ ° ]
20	9.318535	140.0184
20.5	9.522714	109.4951
21	10.52712	80.79964
21.5	10.33856	51.89009
22	8.054296	28.04947
22.5	7.637054	0.182684
23	4.798817	-26.55752
23.5	5.706558	-38.1774
24	5.624532	-57.76271
24.5	4.708635	-74.40552
25	4.690936	-87.17596
25.5	4.049113	-113.1332
26	3.938499	-126.8961
26.5	3.576908	-144.3642
27	3.084083	-160.6838
27.5	2.677765	-172.9119
28	2.870887	168.0579
28.5	2.624339	155.0956
29	2.74102	139.6025
29.5	2.617044	116.9667
30	2.362342	97.14611
30.5	2.203923	86.01782
31	2.20033	65.61241
31.5	2.059252	39.49485
32	1.934096	10.53794
32.5	2.04303	-6.832673
33	1.744948	-29.76004
33.5	0.8239716	-91.87297
34	1.566716	-65.04239
34.5	1.22691	-105.687
35	0.847251	-139.8612
35.5	0.802033	-155.8754
36	0.6592577	-166.9557
36.5	0.4653597	160.2936
37	0.3939584	106.3375
37.5	0.1553601	66.58989
38	0.4419339	37.72631
38.5	0.332252	-61.34667
39	0.09176785	81.04745
39.5	0.2418219	65.63349
40	0.2450762	-11.08015
40.5	0.1542498	6.734872
41	0.3006828	-102.7315
41.5	0.2172923	-130.8466
42	0.2876816	-101.0036
42.5	0.229073	-119.2679
43	0.3383715	-127.1662
43.5	0.5857626	-107.2078
44	0.206228	-127.9845
44.5	0.4379257	176.49
45	0.1413266	104.2626
45.5	0.4868351	167.949
46	0.2561312	80.46792
46.5	0.2199923	118.2941
47	0.3267741	167.2504
47.5	0.5800896	136.723
48	0.387805	122.7145
48.5	0.3836478	105.317
49	0.4749959	-9.561677
49.5	0.2629659	-126.161
50	0.6864398	26.42946
50.5	0.3431357	56.09916
51	0.6128668	-8.957685
51.5	0.4272957	14.91772
52	0.3299294	-0.709461
52.5	0.3826584	28.17387
53	0.6861661	-39.35174
53.5	0.3048942	-41.13305
54	0.5153993	-21.18875
54.5	0.6620216	-105.7206
55	0.6432034	-90.278
55.5	0.7275805	-90.58182
56	0.7119378	-86.20596
56.5	0.5662338	-155.4464
57	0.4070792	-125.6895
57.5	0.3858815	-146.1269
58	0.8212547	-161.2839
58.5	0.5918308	-169.435
59	0.5798674	-170.1562
59.5	1.016764	154.6815
60	0.7752075	162.3705
60.5	0.9063741	154.6315
61	0.8868139	116.6562
61.5	1.00215	103.6631
62	0.6714863	104.9063
62.5	1.071046	75.78443
63	1.111299	51.43325
63.5	1.332519	41.89556
64	0.9219897	36.63424
64.5	0.9876971	14.44807
65	0.8018874	10.4109
65.5	1.162067	13.90689
66	1.327138	-22.75095
66.5	1.419685	-28.32677
67	1.485138	-50.943
67.5	1.395422	-62.3339
68	1.989015	-81.7953
68.5	1.428129	-91.38237
69	1.578632	-121.8294
69.5	1.347748	-121.9974
70	1.562945	-136.045
70.5	1.52332	-149.3227
71	1.820703	-169.5181
71.5	1.966543	176.5985
72	1.780218	172.4934
72.5	1.792535	154.0057
73	2.007585	144.9189
73.5	2.143327	119.671
74	1.939407	111.3078
74.5	2.133425	84.90755
75	2.302346	85.07133
75.5	2.617834	61.95024
76	2.479576	49.26957
76.5	2.470969	38.0167
77	2.525205	18.74076
77.5	2.550368	7.179841
78	2.822436	-8.151381
78.5	2.834509	-20.33641
79	2.993636	-43.9323
79.5	3.032749	-51.30734
80	3.214512	-66.5379
80.5	3.548046	-79.80072
81	3.176528	-100.1035
81.5	3.642742	-108.7139
82	3.49086	-129.0562
82.5	3.572643	-140.0239
83	4.056093	-154.0422
83.5	4.364287	-170.9662
84	4.207543	174.9524
84.5	4.311662	159.544
85	4.532601	144.8078
85.5	4.666324	127.1993
86	5.014476	114.6265
86.5	4.959018	96.33561
87	5.1979	81.34671
87.5	5.246708	66.8879
88	5.602047	54.3206
88.5	5.729724	39.28619
89	6.031708	24.30575
89.5	6.181458	6.273129
90	6.255095	-7.641354
90.5	6.780179	-22.89266
91	7.043945	-41.60643
91.5	7.200346	-55.69243
92	7.129502	-67.31273
92.5	7.692639	-83.2754
93	8.049873	-99.47086
93.5	8.514908	-115.0663
94	8.904214	-131.7858
94.5	8.909236	-149.747
95	9.140312	-163.3395
95.5	9.746056	-179.2152
96	9.993027	164.7013
96.5	10.35023	149.8238
97	10.6509	132.338
97.5	10.87116	118.0052
98	11.56952	100.9275
98.5	11.9711	85.93691
99	12.59937	67.69072
99.5	12.93528	51.69533
100	13.11683	36.22565
100.5	13.42227	19.26826
101	13.88885	2.566505
101.5	14.43621	-13.45804
102	14.42782	-30.55724
102.5	14.77376	-46.94466
103	15.11831	-61.14645
103.5	15.6311	-78.15684
104	15.7263	-92.34843
104.5	16.16722	-109.076
105	16.40172	-122.3233
105.5	17.17192	-137.2651
106	18.36872	-151.3135
106.5	19.96963	-166.6008
107	21.73832	176.802
107.5	23.72573	160.1248
108	26.10571	142.3064
108.5	28.10822	123.4446
109	30.83659	102.1824
109.5	32.30849	81.97421
110	33.94551	60.14535
110.5	34.8228	38.56791
111	35.29792	16.89575
111.5	34.93299	-4.445623
112	34.25608	-26.52462
112.5	32.79011	-47.60865
113	30.78189	-67.45101
113.5	29.24771	-86.04231
114	27.50953	-105.0151
114.5	25.96312	-122.7659
115	24.15495	-139.2274
115.5	23.38976	-156.1676
116	21.55577	-172.0395
116.5	20.80829	172.0141
117	20.23877	156.2511
117.5	19.56486	140.4823
118	18.73179	124.9114
118.5	18.29927	109.6098
119	17.64861	95.05325
119.5	17.09851	80.25643
120	17.1856	63.45506
120.5	16.44068	48.72784
121	16.29124	33.22617
121.5	15.70637	18.93412
122	15.69551	3.160035
122.5	15.53438	-11.47877
123	15.45416	-26.66861
123.5	15.11655	-42.00122
124	14.80942	-56.07999
124.5	14.77697	-72.39085
125	14.60738	-87.33784
125.5	14.6777	-102.0272
126	14.43501	-116.6847
126.5	14.49882	-132.7807
127	14.45546	-146.0432
127.5	14.36685	-163.4205
128	14.24906	-178.8431
128.5	14.15046	166.6329
129	14.14087	151.9397
129.5	13.99787	137.2057
130	14.31756	121.6248
130.5	14.53138	106.2847
131	14.37444	89.79494
131.5	14.38947	75.99964
132	14.41574	58.54372
132.5	14.41864	42.99952
133	14.32415	26.58978
133.5	14.46195	10.81291
134	13.90393	-4.147552
134.5	14.22386	-19.7649
135	13.97518	-35.18818
135.5	13.62583	-50.96661
136	13.51989	-65.51495
136.5	13.7078	-80.71017
137	13.68622	-95.90421
137.5	13.21465	-111.4908
138	13.8367	-125.5336
138.5	13.47297	-142.5079
139	13.59309	-155.749
139.5	13.52071	-170.3616
140	13.90117	173.7502
140.5	14.15953	158.6796
141	14.30565	141.6873
141.5	14.37425	126.6804
142	14.50694	109.9033
142.5	14.63264	94.19266
143	14.47569	78.09374
143.5	14.67216	62.35061
144	14.44836	45.62461
144.5	14.89872	29.71146
145	14.6456	13.2439
145.5	14.68799	-3.215641
146	14.54831	-18.85858
146.5	14.54219	-35.7417
147	14.40148	-51.37125
147.5	14.1572	-69.07011
148	13.85743	-84.71383
148.5	13.52963	-102.3046
149	12.90105	-116.4697
149.5	12.39523	-131.4784
150	12.33194	-145.5158
150.5	12.23391	-158.1375
151	12.26709	-172.7352
151.5	12.17379	173.6167
152	12.50271	157.9538
152.5	12.59405	143.7652
153	13.00208	128.3944
153.5	13.14524	113.5455
154	13.5752	97.40681
154.5	13.72212	80.76748
155	13.65065	64.77969
155.5	13.99212	48.56111
156	13.78865	32.45267
156.5	13.86397	17.08781
157	14.13117	1.832053
157.5	14.03319	-15.22232
158	14.27988	-30.74865
158.5	14.56967	-46.38959
159	14.55586	-62.45306
159.5	14.61156	-79.67253
160	14.56228	-95.98347
160.5	14.91839	-111.0957
161	15.22605	-128.1901
161.5	15.32301	-144.0614
162	15.59522	-161.6554
162.5	15.55142	-178.5439
163	15.7507	164.5188
163.5	16.02928	146.8383
164	16.11819	129.1633
164.5	16.28011	110.3688
165	15.98413	91.96536
165.5	15.82353	72.51193
166	15.20687	54.53726
166.5	14.85948	36.82769
167	13.80713	19.60103
167.5	13.25571	1.156418
168	12.81646	-13.72489
168.5	12.44045	-31.00501
169	12.03793	-47.74389
169.5	11.46983	-64.31123
170	11.06598	-81.47772
170.5	10.37026	-98.37569
171	9.888935	-113.8354
171.5	9.434068	-128.0999
172	9.294071	-146.6484
172.5	8.183864	-159.4813
173	8.351912	-174.4322
173.5	7.959274	170.983
174	7.832049	153.185
174.5	7.516681	141.107
175	7.141331	123.6039
175.5	6.917125	106.0783
176	6.641887	93.68941
176.5	6.576393	77.49597
177	6.0814	63.35732
177.5	6.150761	46.2453
178	5.640894	34.74343
178.5	5.7118	13.72578
179	5.062857	2.226395
179.5	5.051091	-15.66572
180	4.650101	-30.08534
180.5	4.319155	-43.17353
181	4.387565	-56.93541
181.5	4.042223	-73.94056
182	3.900677	-89.29674
182.5	3.615988	-102.0214
183	3.098603	-119.5157
183.5	2.847455	-127.8211
184	2.772049	-146.0726
184.5	2.471261	-150.2095
185	2.063891	-169.651
185.5	2.109145	-173.1857
186	1.83565	175.2146
186.5	1.508928	172.8586
187	1.661191	169.6193
187.5	1.523565	163.6107
188	1.673097	163.5421
188.5	2.049675	160.2158
189	2.482067	150.0791
189.5	2.764709	144.5485
190	3.479297	125.4237
190.5	3.9543	113.5919
191	4.457254	94.05427
191.5	4.879064	80.8116
192	5.411641	60.09706
192.5	5.804929	44.22083
193	6.210369	28.33204
193.5	6.544751	8.682197
194	7.351634	-4.539733
194.5	7.726139	-25.36658
195	8.001201	-41.01633
195.5	8.503039	-61.19569
196	8.698461	-78.71994
196.5	9.002527	-97.5592
197	9.298217	-114.1822
197.5	9.476328	-132.6938
198	9.796001	-151.8923
198.5	9.824516	-169.6379
199	9.854421	172.9941
199.5	10.03788	155.8815
200	10.10439	136.2151
200.5	10.16642	120.4942
201	10.18393	100.034
201.5	10.08423	83.52216
202	10.04857	64.55601
202.5	9.800917	48.54183
203	9.590259	29.63896
203.5	9.646322	11.64885
204	9.127431	-4.681348
204.5	9.184887	-20.7036
205	9.05333	-37.71653
205.5	8.682595	-55.4884
206	8.683478	-71.62696
206.5	8.353991	-90.20115
207	7.867279	-105.08
207.5	7.548619	-121.6039
208	7.717744	-134.8304
208.5	7.430499	-154.3092
209	7.294712	-167.4111
209.5	7.171559	174.9078
210	6.963908	160.8715
210.5	6.851979	146.4439
211	6.79873	128.3943
211.5	6.616834	111.7599
212	6.365457	96.63232
212.5	6.296359	83.17459
213	6.20026	65.24567
213.5	6.09504	50.9939
214	6.07794	33.59336
214.5	5.899389	18.80821
215	5.408638	4.285657
215.5	5.791035	-8.846495
216	5.611758	-28.60186
216.5	5.231262	-40.53203
217	5.351544	-57.87767
217.5	5.005987	-71.87582
218	5.032976	-82.46307
218.5	5.281507	-99.61564
219	5.243259	-117.3517
219.5	4.954909	-134.7446
220	5.057863	-146.2571
220.5	5.001278	-163.1068
221	4.868652	-178.119
221.5	4.897235	165.4114
222	4.797654	149.4106
222.5	4.385244	133.9403
223	4.486433	124.1795
223.5	4.632062	102.9044
224	4.468831	88.71752
224.5	4.370575	73.86646
225	4.247475	56.9823
225.5	4.366342	45.03429
226	4.258946	29.77541
226.5	4.272104	11.75242
227	3.85804	-4.048796
227.5	3.884563	-14.28319
228	4.153458	-33.48361
228.5	3.86903	-46.09498
229	3.962006	-65.30037
229.5	3.686146	-81.17391
230	3.628988	-94.38936
230.5	3.43034	-105.198
231	3.714602	-122.4684
231.5	3.517787	-139.2834
232	3.415316	-152.6898
232.5	3.306797	-165.2843
233	3.266538	178.6187
233.5	3.464628	165.1655
234	3.300142	151.1398
234.5	3.331192	132.4907
235	3.046757	119.5004
235.5	3.246501	106.6311
236	3.345069	91.38732
236.5	3.536575	72.40285
237	3.164432	61.73742
237.5	3.269016	42.07108
238	3.403876	30.9937
238.5	3.166885	9.996479
239	3.047562	-3.984154
239.5	3.077065	-20.31905
240	2.870111	-36.82162
240.5	2.619019	-42.20181
241	3.090438	-63.13503
241.5	3.024333	-76.83375
242	3.003748	-91.94212
242.5	2.741536	-105.0818
243	2.735162	-124.4919
243.5	2.851069	-132.1379
244	2.816022	-157.6083
244.5	2.703198	-170.8783
245	2.372474	178.7713
245.5	2.38911	166.7396
246	2.587617	150.386
246.5	2.450674	138.0081
247	2.64535	124.8482
247.5	2.592593	102.6694
248	2.621576	99.30899
248.5	2.787811	76.69904
249	2.687111	56.11948
249.5	2.414086	39.15324
250	2.383274	37.02769
250.5	2.318748	19.87584
251	2.238628	4.32634
251.5	2.74613	-7.605202
252	2.679484	-33.73754
252.5	2.413083	-48.1198
253	2.397292	-53.80126
253.5	2.482802	-70.8409
254	2.325107	-85.98615
254.5	2.542086	-99.76074
255	2.313298	-116.1467
255.5	2.43501	-132.2867
256	2.467476	-145.8094
256.5	2.437776	-162.8974
257	2.463065	171.3196
257.5	2.097483	166.5193
258	2.451411	154.4105
258.5	2.198924	140.3342
259	2.212363	121.4089
259.5	2.303859	106.8822
260	2.07001	88.27822
260.5	2.10965	83.90925
261	2.396266	63.00845
261.5	2.174549	49.31461
262	2.111344	32.94965
262.5	2.132763	15.77516
263	2.024108	7.992934
263.5	2.127907	-13.92112
264	2.32608	-16.05082
264.5	2.370533	-43.43696
265	2.086189	-56.78794
265.5	2.203443	-70.75874
266	2.285978	-83.60902
266.5	1.980808	-101.2371
267	1.991768	-115.1733
267.5	1.971957	-128.9293
268	2.092768	-145.263
268.5	2.118585	-155.2262
269	2.463051	-175.5426
269.5	2.419232	167.0456
270	1.899583	152.0964
270.5	2.049664	141.999
271	1.863997	122.5383
271.5	2.038014	114.2408
272	2.087614	97.10046
272.5	2.233897	83.25061
273	1.993492	60.68702
273.5	2.052028	51.55008
274	2.332672	40.26546
274.5	2.343794	18.24692
275	2.185072	3.995552
275.5	2.181181	-13.40608
276	2.075997	-32.44384
276.5	2.050267	-42.16347
277	2.203628	-62.21157
277.5	1.965559	-74.01059
278	2.036652	-80.55744
278.5	1.888216	-101.6172
279	2.154653	-119.6942
279.5	2.192029	-138.7865
280	2.186783	-149.6902
280.5	2.104379	-169.8309
281	1.85335	-179.8391
281.5	1.980451	164.778
282	2.048084	151.8969
282.5	1.952215	135.086
283	2.103489	122.4689
283.5	1.986355	101.4949
284	1.952135	78.76402
284.5	2.091112	69.70414
285	2.288623	47.85133
285.5	1.963651	31.28971
286	1.633446	25.0076
286.5	1.603464	15.39345
287	1.57434	-10.73158
287.5	1.990417	-18.41659
288	1.901067	-36.59995
288.5	1.879343	-55.57227
289	1.58973	-76.04575
289.5	1.680004	-82.80499
290	1.768238	-99.94238
290.5	1.73654	-117.7048
291	1.65502	-127.6103
291.5	1.646351	-148.0281
292	1.440492	-163.7084
292.5	1.65643	177.8987
293	1.701201	169.3342
293.5	1.412824	147.7287
294	1.364171	144.8331
294.5	1.265769	127.0016
295	1.312145	102.0955
295.5	1.707127	87.95499
296	1.575409	67.27991
296.5	1.071816	56.9465
297	1.352045	48.26939
297.5	1.211234	34.94041
298	1.301917	17.27051
298.5	1.095293	7.368305
299	1.36353	-13.07174
299.5	1.147843	-34.06579
300	0.9808159	-51.56538
300.5	1.310805	-61.23386
301	1.390705	-85.34478
301.5	1.028659	-93.13103
302	1.109107	-103.7477
302.5	0.9207761	-130.0181
303	0.5079499	-136.3352
303.5	0.9798753	-164.062
304	0.6062979	-147.6048
304.5	0.8440429	-166.2276
305	0.8359144	-179.0839
305.5	1.150156	157.7927
306	0.7130448	127.9156
306.5	0.623306	112.1884
307	0.6862256	108.0234
307.5	0.6586491	109.1418
308	0.7451698	87.20158
308.5	0.5309585	64.85321
309	0.6552114	60.52756
309.5	0.7066856	62.77727
310	0.5601497	41.66628
310.5	0.7720377	49.05338
311	0.6216297	14.28519
311.5	0.6702095	-21.80341
312	0.7903704	-47.15054
312.5	0.6359573	-36.00402
313	0.6781746	-68.39698
313.5	0.3084789	-36.14354
314	0.7184361	-20.99524
314.5	0.5251332	-52.37255
315	0.8877314	-84.86536
315.5	0.7753068	-112.3571
316	0.7384503	-121.4475
316.5	0.4997531	-133.2966
317	0.6418816	-169.2975
317.5	0.6826324	-156.7586
318	0.9782614	-171.9721
318.5	0.8097394	161.0813
319	0.6533853	-179.0364
319.5	0.6761814	134.5999
320	0.6184423	123.242
320.5	0.9802021	94.02292
321	0.6818973	106.5048
321.5	0.947422	81.49393
322	0.6518369	78.22636
322.5	0.5859275	44.43925
323	0.7498391	15.3179
323.5	0.5532681	4.991416
324	0.6716084	26.45392
324.5	0.7113429	22.72504
325	0.8734468	-13.36369
325.5	1.06627	-30.6425
326	1.099404	-62.21901
326.5	0.7738716	-50.42442
327	0.5830994	-80.67003
327.5	0.7513465	-83.26717
328	0.6142226	-142.9336
328.5	0.9035776	-135.9586
329	0.741593	-155.1956
329.5	0.6894454	-136.8797
330	0.9351855	-140.5223
330.5	0.6453364	168.6275
331	0.5261124	177.0876
331.5	0.7795627	155.2654
332	0.88734	145.5438
332.5	0.4936887	121.9468
333	0.7629995	119.7458
333.5	0.7177085	89.30827
334	0.9975783	73.48093
334.5	0.6784307	91.7448
335	1.046191	58.08233
335.5	0.6222558	26.83912
336	0.5902669	33.34224
336.5	0.8593637	9.914042
337	0.846448	-5.702928
337.5	1.176778	-10.10997
338	0.8542681	-33.79204
338.5	0.6775584	-55.35327
339	0.4699429	-58.29541
339.5	0.7053069	-87.1009
340	0.6594857	-67.63734
340.5	0.9950096	-92.08921
341	1.034122	-108.3163
341.5	1.039904	-128.4132
342	1.086923	-139.988
342.5	1.234972	-157.4099
343	0.9193584	178.4615
343.5	0.8612728	174.1525
344	0.9194167	150.8029
344.5	0.8298803	139.3694
345	0.929301	107.0473
345.5	1.319635	115.306
346	1.216923	94.0423
346.5	1.031619	90.88984
347	1.195295	66.45229
347.5	0.9102916	37.31016
348	1.11723	32.34414
348.5	1.016921	10.20637
349	1.238234	8.583879
349.5	1.005967	-16.97649
350	0.9875121	-20.81304
