Source File Name:	12,2,3
Signal:	FFT - Ref1 Force - Mag. & Phase

Frequency	Magnitude	Phase
[ Hz ]	[ N ]	[ ° ]
20	0.0001270743	156.1492
20.5	0.0001273352	141.5641
21	0.0001272187	127.8236
21.5	0.0001264809	113.1496
22	0.0001274152	99.46344
22.5	0.0001260762	85.07928
23	0.0001274376	70.83052
23.5	0.0001261736	56.90551
24	0.0001273168	42.55795
24.5	0.0001266994	28.75551
25	0.0001272764	14.20511
25.5	0.0001271341	0.4590539
26	0.0001275998	-14.0259
26.5	0.0001277319	-27.6777
27	0.0001272737	-42.169
27.5	0.0001279952	-55.71969
28	0.0001268528	-69.91795
28.5	0.0001280155	-83.9478
29	0.0001266535	-97.93383
29.5	0.0001274203	-112.2246
30	0.0001266032	-125.8701
30.5	0.0001267564	-140.3012
31	0.0001264724	-153.9451
31.5	0.0001262056	-168.3907
32	0.000125856	177.8104
32.5	0.000125287	163.3683
33	0.0001256726	149.5905
33.5	0.000124797	135.2019
34	0.0001254421	121.1877
34.5	0.0001241842	107.02
35	0.0001251365	92.65365
35.5	0.0001243887	78.74055
36	0.0001249315	64.3422
36.5	0.000124678	50.57487
37	0.0001246242	36.06681
37.5	0.0001247876	22.27
38	0.0001243212	7.91335
38.5	0.0001248332	-5.909342
39	0.0001241174	-20.21192
39.5	0.0001246521	-34.10591
40	0.0001239278	-48.16568
40.5	0.000124607	-62.32276
41	0.0001237424	-76.24554
41.5	0.000124359	-90.50785
42	0.0001238005	-104.2477
42.5	0.0001237825	-118.7123
43	0.0001234473	-132.4117
43.5	0.0001231313	-146.7124
44	0.000123283	-160.4863
44.5	0.0001225795	-174.7032
45	0.0001228847	171.2001
45.5	0.0001220437	157.0672
46	0.0001224694	142.86
46.5	0.0001214557	128.9202
47	0.0001219549	114.5715
47.5	0.0001214423	100.625
48	0.000121292	86.20148
48.5	0.0001211527	72.42664
49	0.0001208701	57.88256
49.5	0.0001210671	44.16396
50	0.0001205102	29.8099
50.5	0.0001209436	15.71362
51	0.0001205073	1.694951
51.5	0.0001209243	-12.45031
52	0.000120209	-26.38636
52.5	0.0001205618	-40.66961
53	0.0001200786	-54.46902
53.5	0.0001200409	-68.79673
54	0.0001201904	-82.5523
54.5	0.0001196672	-96.90559
55	0.0001196299	-110.6151
55.5	0.0001190474	-124.9068
56	0.0001192598	-138.9018
56.5	0.0001185723	-153.0296
57	0.0001189106	-167.1014
57.5	0.0001179812	178.9829
58	0.0001182202	164.6842
58.5	0.0001175171	150.7438
59	0.0001175075	136.3445
59.5	0.0001174261	122.4914
60	0.0001166582	108.1721
60.5	0.0001169254	94.36983
61	0.0001162089	80.05627
61.5	0.0001164686	65.94727
62	0.0001159493	51.91173
62.5	0.0001162077	37.75902
63	0.0001156455	23.77288
63.5	0.0001157972	9.34047
64	0.0001155228	-4.477626
64.5	0.0001157976	-18.55767
65	0.0001155365	-32.43303
65.5	0.0001148495	-46.7736
66	0.0001152308	-60.70937
66.5	0.0001145784	-74.84975
67	0.0001147443	-88.86328
67.5	0.0001140057	-102.8884
68	0.000114322	-117.0105
68.5	0.0001138031	-130.9829
69	0.0001135141	-145.1783
69.5	0.0001133255	-158.9794
70	0.0001129037	-173.3022
70.5	0.0001127485	172.7773
71	0.0001120908	158.449
71.5	0.0001123888	144.5097
72	0.0001116866	130.3442
72.5	0.0001117958	116.1883
73	0.0001111459	102.2427
73.5	0.0001112431	88.01619
74	0.0001108007	74.09684
74.5	0.0001106681	59.75422
75	0.0001105252	45.82447
75.5	0.0001103696	31.51517
76	0.0001103372	17.65409
76.5	0.0001098351	3.329506
77	0.0001099441	-10.64346
77.5	0.0001094454	-24.70635
78	0.0001096109	-38.76215
78.5	0.0001089218	-52.75362
79	0.0001090958	-67.00368
79.5	0.0001087201	-80.82035
80	0.0001084269	-95.08439
80.5	0.0001083484	-108.8501
81	0.0001079956	-123.045
81.5	0.0001078525	-136.9921
82	0.0001071066	-151.2491
82.5	0.0001072108	-165.1903
83	0.0001065246	-179.2757
83.5	0.0001066675	166.5795
84	0.000106127	152.5585
84.5	0.0001060028	138.2857
85	0.0001057142	124.4927
85.5	0.0001053233	110.2013
86	0.000105221	96.33805
86.5	0.0001047664	81.9539
87	0.0001048591	68.02596
87.5	0.0001043175	53.75875
88	0.0001045455	39.82628
88.5	0.0001038577	25.84479
89	0.0001038957	11.62404
89.5	0.0001034681	-2.358162
90	0.0001034227	-16.58274
90.5	0.0001031196	-30.37932
91	0.0001028127	-44.57553
91.5	0.0001026941	-58.36909
92	0.0001022226	-72.53333
92.5	0.0001022312	-86.47946
93	0.0001014902	-100.6413
93.5	0.0001015435	-114.6743
94	0.0001009375	-128.6834
94.5	0.0001010922	-142.8593
95	0.0001004211	-156.7113
95.5	0.0001002618	-170.9146
96	9.964552e-5	175.1104
96.5	9.95476e-5	160.8028
97	9.943999e-5	147.0737
97.5	9.884009e-5	132.6847
98	9.889485e-5	118.6964
98.5	9.819685e-5	104.6226
99	9.832811e-5	90.46437
99.5	9.779025e-5	76.48951
100	9.784171e-5	62.26378
100.5	9.738735e-5	48.34704
101	9.721679e-5	34.12231
101.5	9.689783e-5	20.20191
102	9.683918e-5	5.924582
102.5	9.670372e-5	-7.72184
103	9.621177e-5	-21.93189
103.5	9.62347e-5	-35.92108
104	9.564316e-5	-50.06651
104.5	9.58889e-5	-63.98306
105	9.519923e-5	-77.91331
105.5	9.503609e-5	-92.16327
106	9.459353e-5	-106.128
106.5	9.43531e-5	-120.2718
107	9.418481e-5	-134.1317
107.5	9.384048e-5	-148.3315
108	9.3414e-5	-162.0752
108.5	9.281284e-5	-176.4713
109	9.280205e-5	169.6684
109.5	9.228861e-5	155.5553
110	9.23239e-5	141.4198
110.5	9.178195e-5	127.4206
111	9.158374e-5	113.2341
111.5	9.119537e-5	99.33858
112	9.100194e-5	85.18172
112.5	9.062095e-5	71.29042
113	9.038982e-5	56.98296
113.5	9.028204e-5	43.08243
114	8.984798e-5	28.8145
114.5	8.994342e-5	14.94879
115	8.930622e-5	0.8493599
115.5	8.933122e-5	-13.15851
116	8.880414e-5	-27.08147
116.5	8.88673e-5	-41.2592
117	8.834186e-5	-55.18028
117.5	8.830027e-5	-69.41406
118	8.788705e-5	-83.09425
118.5	8.757724e-5	-97.33854
119	8.733646e-5	-111.1771
119.5	8.68072e-5	-125.2648
120	8.670931e-5	-139.2715
120.5	8.621315e-5	-153.4451
121	8.615112e-5	-167.3926
121.5	8.54385e-5	178.5944
122	8.543926e-5	164.4694
122.5	8.499569e-5	150.507
123	8.485252e-5	136.3674
123.5	8.441677e-5	122.4846
124	8.406559e-5	108.206
124.5	8.379213e-5	94.36552
125	8.331361e-5	80.13764
125.5	8.348449e-5	66.19801
126	8.314814e-5	52.15001
126.5	8.296119e-5	38.09301
127	8.248134e-5	24.15484
127.5	8.246722e-5	9.988256
128	8.193729e-5	-3.847729
128.5	8.184942e-5	-17.84545
129	8.159952e-5	-32.08468
129.5	8.135066e-5	-46.13615
130	8.111518e-5	-59.91378
130.5	8.056297e-5	-74.02408
131	8.055065e-5	-87.96142
131.5	8.01991e-5	-102.1256
132	7.99767e-5	-116.0143
132.5	7.943829e-5	-129.8589
133	7.923636e-5	-144.0742
133.5	7.885718e-5	-157.9963
134	7.86606e-5	-172.2615
134.5	7.834342e-5	173.8443
135	7.807614e-5	159.8061
135.5	7.769655e-5	145.9701
136	7.719627e-5	131.8477
136.5	7.713252e-5	117.7981
137	7.664474e-5	103.7208
137.5	7.65334e-5	89.61806
138	7.625155e-5	75.62438
138.5	7.603325e-5	61.63163
139	7.569581e-5	47.63738
139.5	7.556337e-5	33.46898
140	7.524167e-5	19.58393
140.5	7.484247e-5	5.430069
141	7.47362e-5	-8.542783
141.5	7.446874e-5	-22.49929
142	7.443107e-5	-36.37093
142.5	7.3922e-5	-50.30086
143	7.378303e-5	-64.35873
143.5	7.329542e-5	-78.37519
144	7.310015e-5	-92.39828
144.5	7.286653e-5	-106.4355
145	7.258295e-5	-120.4048
145.5	7.223171e-5	-134.181
146	7.178685e-5	-148.4053
146.5	7.167606e-5	-162.2995
147	7.132733e-5	-176.3122
147.5	7.111036e-5	169.6973
148	7.077608e-5	155.5753
148.5	7.045179e-5	141.6377
149	7.003907e-5	127.7311
149.5	6.991447e-5	113.5539
150	6.951114e-5	99.68784
150.5	6.945572e-5	85.46269
151	6.921486e-5	71.62378
151.5	6.894099e-5	57.48817
152	6.880477e-5	43.53163
152.5	6.830886e-5	29.5742
153	6.842353e-5	15.54253
153.5	6.803445e-5	1.519661
154	6.772111e-5	-12.43933
154.5	6.749907e-5	-26.40965
155	6.730111e-5	-40.3536
155.5	6.706028e-5	-54.22279
156	6.663981e-5	-68.23696
156.5	6.634373e-5	-82.11114
157	6.622131e-5	-96.27236
157.5	6.5945e-5	-110.1084
158	6.549936e-5	-124.0945
158.5	6.541891e-5	-138.0199
159	6.500196e-5	-152.0899
159.5	6.464643e-5	-166.1454
160	6.431955e-5	179.8922
160.5	6.431114e-5	165.8725
161	6.399804e-5	152.0728
161.5	6.352447e-5	137.865
162	6.34734e-5	124.1857
162.5	6.30244e-5	109.9381
163	6.277532e-5	95.95239
163.5	6.250735e-5	81.8764
164	6.261631e-5	67.93758
164.5	6.212474e-5	54.1159
165	6.189571e-5	39.80568
165.5	6.165192e-5	25.9983
166	6.141906e-5	12.05068
166.5	6.121762e-5	-1.945145
167	6.098637e-5	-15.91301
167.5	6.090328e-5	-29.72878
168	6.051297e-5	-43.68362
168.5	6.030253e-5	-57.58176
169	6.010651e-5	-71.69147
169.5	6.004614e-5	-85.52868
170	5.944604e-5	-99.40272
170.5	5.919679e-5	-113.6755
171	5.87584e-5	-127.4215
171.5	5.873621e-5	-141.3742
172	5.840656e-5	-155.2674
172.5	5.812964e-5	-169.3063
173	5.813879e-5	176.7487
173.5	5.763414e-5	162.8779
174	5.745131e-5	148.8033
174.5	5.699631e-5	134.8224
175	5.699269e-5	120.7945
175.5	5.667045e-5	106.8104
176	5.650782e-5	92.74963
176.5	5.628461e-5	78.95734
177	5.60382e-5	64.81766
177.5	5.584467e-5	51.05095
178	5.566976e-5	36.81614
178.5	5.553772e-5	23.21015
179	5.513371e-5	9.005257
179.5	5.510371e-5	-4.825499
180	5.475495e-5	-18.75329
180.5	5.468131e-5	-32.83791
181	5.423358e-5	-46.59133
181.5	5.414462e-5	-60.59729
182	5.382138e-5	-74.35088
182.5	5.370573e-5	-88.59009
183	5.349981e-5	-102.2291
183.5	5.321446e-5	-116.2738
184	5.303132e-5	-129.9643
184.5	5.265246e-5	-144.0537
185	5.240997e-5	-158.1402
185.5	5.205089e-5	-171.9125
186	5.20471e-5	174.0453
186.5	5.161967e-5	160.0251
187	5.165743e-5	146.0921
187.5	5.119799e-5	132.3043
188	5.096843e-5	118.03
188.5	5.081493e-5	104.2666
189	5.067608e-5	90.0702
189.5	5.058897e-5	76.29618
190	5.012667e-5	62.19763
190.5	5.017622e-5	48.23988
191	4.991408e-5	34.56469
191.5	4.977066e-5	20.36611
192	4.933688e-5	6.573048
192.5	4.926811e-5	-7.428269
193	4.906283e-5	-21.07409
193.5	4.889314e-5	-35.38928
194	4.869695e-5	-48.97393
194.5	4.852763e-5	-63.07636
195	4.832024e-5	-76.81703
195.5	4.804593e-5	-90.84418
196	4.80275e-5	-104.5683
196.5	4.744218e-5	-118.5721
197	4.751242e-5	-132.5614
197.5	4.716911e-5	-146.3294
198	4.710751e-5	-160.4136
198.5	4.687536e-5	-174.18
199	4.644349e-5	171.6068
199.5	4.632389e-5	158.0193
200	4.605376e-5	143.8597
200.5	4.601447e-5	130.086
201	4.569323e-5	115.9262
201.5	4.566057e-5	101.9699
202	4.519507e-5	88.05556
202.5	4.521189e-5	74.03793
203	4.485621e-5	60.49003
203.5	4.483343e-5	46.29913
204	4.454447e-5	32.55466
204.5	4.437879e-5	18.50673
205	4.442744e-5	4.772026
205.5	4.427361e-5	-9.388485
206	4.408834e-5	-23.0758
206.5	4.368339e-5	-37.2287
207	4.382408e-5	-50.9738
207.5	4.334627e-5	-64.91239
208	4.326027e-5	-78.6935
208.5	4.292581e-5	-92.54725
209	4.301498e-5	-106.8544
209.5	4.273144e-5	-120.3001
210	4.250389e-5	-134.4877
210.5	4.234811e-5	-148.1533
211	4.204471e-5	-162.2772
211.5	4.201326e-5	-176.0166
212	4.155485e-5	169.9942
212.5	4.16422e-5	156.087
213	4.114497e-5	142.0404
213.5	4.113735e-5	128.1034
214	4.104418e-5	114.3955
214.5	4.090096e-5	100.3227
215	4.062275e-5	86.58118
215.5	4.041665e-5	72.4035
216	4.036312e-5	58.68626
216.5	4.011774e-5	44.53516
217	4.027611e-5	30.74911
217.5	3.987111e-5	16.89982
218	3.992418e-5	3.113278
218.5	3.93841e-5	-10.76054
219	3.944756e-5	-25.13802
219.5	3.925111e-5	-38.61094
220	3.917034e-5	-52.59572
220.5	3.888251e-5	-66.24546
221	3.877824e-5	-80.31769
221.5	3.879925e-5	-94.02626
222	3.827649e-5	-108.0587
222.5	3.818489e-5	-121.9179
223	3.790074e-5	-135.9049
223.5	3.806907e-5	-149.6929
224	3.767763e-5	-163.5807
224.5	3.755022e-5	-177.6004
225	3.726203e-5	168.8335
225.5	3.713485e-5	154.4751
226	3.703349e-5	140.985
226.5	3.678382e-5	126.74
227	3.686297e-5	112.9606
227.5	3.66215e-5	98.79772
228	3.653114e-5	84.9799
228.5	3.617944e-5	71.12951
229	3.629913e-5	57.08498
229.5	3.586338e-5	43.30526
230	3.595149e-5	29.37578
230.5	3.587164e-5	15.44103
231	3.570405e-5	1.49029
231.5	3.546591e-5	-11.92449
232	3.521207e-5	-26.13327
232.5	3.530502e-5	-39.7169
233	3.493269e-5	-53.89495
233.5	3.480792e-5	-67.66714
234	3.466499e-5	-81.33244
234.5	3.474308e-5	-95.45817
235	3.437751e-5	-109.1056
235.5	3.428552e-5	-123.4386
236	3.419042e-5	-136.8948
236.5	3.400166e-5	-150.9839
237	3.389151e-5	-164.5916
237.5	3.365879e-5	-178.7406
238	3.368176e-5	167.5717
238.5	3.326017e-5	153.3363
239	3.320838e-5	139.6224
239.5	3.295459e-5	125.6807
240	3.305641e-5	111.3691
240.5	3.276581e-5	97.80865
241	3.277629e-5	83.64799
241.5	3.25153e-5	70.04784
242	3.247696e-5	55.52483
242.5	3.246625e-5	42.21543
243	3.218787e-5	28.0655
243.5	3.219587e-5	14.52731
244	3.181524e-5	0.5234321
244.5	3.194677e-5	-13.34376
245	3.15695e-5	-27.30529
245.5	3.174814e-5	-41.16459
246	3.155374e-5	-54.54814
246.5	3.142807e-5	-68.91823
247	3.116069e-5	-82.56358
247.5	3.100956e-5	-96.74691
248	3.107841e-5	-110.2261
248.5	3.075778e-5	-124.3103
249	3.072335e-5	-137.9971
249.5	3.054246e-5	-151.9464
250	3.05211e-5	-165.5679
250.5	3.004499e-5	-179.5166
251	3.013295e-5	166.3423
251.5	2.983913e-5	152.4984
252	2.994051e-5	138.2243
252.5	2.972534e-5	125.0212
253	2.953324e-5	110.6376
253.5	2.956443e-5	96.93134
254	2.92306e-5	82.5115
254.5	2.939842e-5	68.99767
255	2.909595e-5	55.03418
255.5	2.91188e-5	41.17474
256	2.892402e-5	27.53782
256.5	2.891178e-5	13.79769
257	2.869685e-5	0.3366643
257.5	2.880193e-5	-14.66377
258	2.855154e-5	-27.69432
258.5	2.846805e-5	-42.0595
259	2.848556e-5	-55.58727
259.5	2.807672e-5	-69.56111
260	2.816563e-5	-83.22379
260.5	2.782505e-5	-96.99203
261	2.794844e-5	-111.0414
261.5	2.753907e-5	-124.8859
262	2.76042e-5	-138.8786
262.5	2.730473e-5	-152.6278
263	2.721724e-5	-166.9388
263.5	2.71241e-5	179.44
264	2.702884e-5	165.0154
264.5	2.69872e-5	151.7723
265	2.670635e-5	137.6589
265.5	2.671297e-5	123.8623
266	2.630192e-5	109.7989
266.5	2.659353e-5	95.54466
267	2.635492e-5	82.08467
267.5	2.628259e-5	68.26628
268	2.605158e-5	54.52244
268.5	2.602281e-5	40.1011
269	2.618584e-5	26.60875
269.5	2.581088e-5	12.53457
270	2.576221e-5	-0.7026167
270.5	2.563793e-5	-15.46561
271	2.577074e-5	-28.71585
271.5	2.541081e-5	-42.80153
272	2.538532e-5	-56.59867
272.5	2.516099e-5	-70.21931
273	2.524402e-5	-84.55603
273.5	2.502594e-5	-97.79746
274	2.494777e-5	-112.1387
274.5	2.484516e-5	-125.4875
275	2.460025e-5	-139.6142
275.5	2.460491e-5	-153.3654
276	2.435547e-5	-167.5336
276.5	2.43901e-5	178.6013
277	2.398368e-5	164.7407
277.5	2.412833e-5	150.8093
278	2.392085e-5	137.1697
278.5	2.399298e-5	122.9969
279	2.371342e-5	109.4564
279.5	2.368983e-5	95.16801
280	2.356862e-5	81.82524
280.5	2.335956e-5	66.99301
281	2.341647e-5	53.44056
281.5	2.335211e-5	39.55129
282	2.331833e-5	26.1189
282.5	2.308434e-5	12.09914
283	2.313764e-5	-1.988704
283.5	2.288429e-5	-15.48429
284	2.293991e-5	-29.90213
284.5	2.277282e-5	-43.25603
285	2.267387e-5	-57.40999
285.5	2.25604e-5	-70.71393
286	2.249162e-5	-85.00014
286.5	2.244598e-5	-98.60785
287	2.211027e-5	-112.5558
287.5	2.203831e-5	-126.5684
288	2.195808e-5	-140.7396
288.5	2.209041e-5	-154.0933
289	2.172904e-5	-167.6352
289.5	2.176392e-5	178.0663
290	2.153085e-5	164.095
290.5	2.140668e-5	150.0913
291	2.129474e-5	136.5985
291.5	2.108747e-5	122.2903
292	2.129134e-5	108.7459
292.5	2.108472e-5	94.55673
293	2.115587e-5	81.014
293.5	2.098025e-5	67.12989
294	2.089338e-5	52.81169
294.5	2.081315e-5	39.17293
295	2.077082e-5	25.09064
295.5	2.052808e-5	11.65559
296	2.045163e-5	-2.721824
296.5	2.050327e-5	-16.30781
297	2.038083e-5	-30.18471
297.5	2.038585e-5	-43.58853
298	2.011069e-5	-57.473
298.5	2.015452e-5	-71.55495
299	1.993293e-5	-85.23512
299.5	2.00079e-5	-99.41467
300	1.966599e-5	-112.9889
300.5	1.97166e-5	-127.0907
301	1.959368e-5	-140.5095
301.5	1.941805e-5	-154.7922
302	1.942102e-5	-168.2129
302.5	1.91512e-5	177.6071
303	1.918523e-5	163.9508
303.5	1.904202e-5	149.8941
304	1.909949e-5	136.048
304.5	1.88322e-5	122.1481
305	1.883495e-5	107.8974
305.5	1.864215e-5	94.39592
306	1.866145e-5	79.88921
306.5	1.854747e-5	66.43822
307	1.856268e-5	52.63047
307.5	1.852151e-5	38.95675
308	1.832691e-5	24.72833
308.5	1.839469e-5	11.29385
309	1.816351e-5	-2.608614
309.5	1.826111e-5	-16.31634
310	1.797693e-5	-29.96825
310.5	1.794558e-5	-43.9515
311	1.771081e-5	-57.50485
311.5	1.781379e-5	-71.88477
312	1.780025e-5	-85.55514
312.5	1.759894e-5	-99.64657
313	1.754603e-5	-112.5752
313.5	1.733004e-5	-126.6888
314	1.739501e-5	-140.4448
314.5	1.715693e-5	-154.5864
315	1.720323e-5	-168.4373
315.5	1.694113e-5	177.7293
316	1.689456e-5	163.6312
316.5	1.672299e-5	149.9017
317	1.674642e-5	135.8625
317.5	1.665055e-5	122.3297
318	1.637281e-5	107.8508
318.5	1.651237e-5	94.94097
319	1.638859e-5	80.51431
319.5	1.638277e-5	66.69205
320	1.615124e-5	52.56579
320.5	1.630738e-5	38.70649
321	1.615464e-5	24.92043
321.5	1.633134e-5	10.43521
322	1.607748e-5	-2.112866
322.5	1.593545e-5	-15.99204
323	1.586376e-5	-29.64664
323.5	1.572651e-5	-43.889
324	1.569869e-5	-57.36147
324.5	1.54661e-5	-71.66836
325	1.5641e-5	-85.22626
325.5	1.541892e-5	-98.64516
326	1.552187e-5	-112.3584
326.5	1.519403e-5	-126.3509
327	1.521954e-5	-140.5809
327.5	1.508625e-5	-153.8148
328	1.496999e-5	-168.4113
328.5	1.49324e-5	178.4286
329	1.466937e-5	163.9345
329.5	1.472411e-5	150.9575
330	1.452549e-5	136.2427
330.5	1.457467e-5	122.7607
331	1.453484e-5	108.9353
331.5	1.450762e-5	94.61292
332	1.433063e-5	81.5014
332.5	1.445208e-5	67.33407
333	1.426521e-5	53.85304
333.5	1.414975e-5	39.32154
334	1.413662e-5	25.68965
334.5	1.413001e-5	11.77953
335	1.409614e-5	-1.101379
335.5	1.384442e-5	-15.36292
336	1.393229e-5	-29.14569
336.5	1.37534e-5	-42.69203
337	1.383253e-5	-56.9077
337.5	1.365877e-5	-70.16115
338	1.359447e-5	-84.40095
338.5	1.351763e-5	-97.47005
339	1.345767e-5	-112.3399
339.5	1.338732e-5	-125.162
340	1.32573e-5	-139.6907
340.5	1.316297e-5	-153.2673
341	1.305601e-5	-167.1202
341.5	1.316716e-5	179.1153
342	1.288808e-5	165.74
342.5	1.288421e-5	151.3993
343	1.279543e-5	137.5173
343.5	1.279354e-5	123.533
344	1.272277e-5	110.5002
344.5	1.257082e-5	96.1662
345	1.256879e-5	82.26087
345.5	1.254829e-5	68.02242
346	1.260751e-5	54.99448
346.5	1.252389e-5	41.19764
347	1.251766e-5	27.3583
347.5	1.220992e-5	14.03193
348	1.238894e-5	-0.1628907
348.5	1.216303e-5	-13.43384
349	1.223192e-5	-27.49732
349.5	1.200927e-5	-41.14564
350	1.208392e-5	-55.37313
