Source File Name:	2,1,3
Signal:	FFT - Ref1 Force - Mag. & Phase

Frequency	Magnitude	Phase
[ Hz ]	[ N ]	[ ° ]
20	8.711161e-5	148.8144
20.5	8.694448e-5	134.3331
21	8.697099e-5	120.1522
21.5	8.696684e-5	105.9994
22	8.640382e-5	91.50915
22.5	8.638224e-5	77.04894
23	8.664714e-5	62.94558
23.5	8.659563e-5	48.645
24	8.680707e-5	34.34966
24.5	8.676699e-5	19.9282
25	8.673814e-5	5.635931
25.5	8.669623e-5	-8.473264
26	8.673703e-5	-22.94523
26.5	8.697468e-5	-37.1403
27	8.677849e-5	-51.24468
27.5	8.656629e-5	-65.44212
28	8.662757e-5	-79.63487
28.5	8.667839e-5	-93.89692
29	8.645048e-5	-107.9834
29.5	8.641736e-5	-122.2958
30	8.644466e-5	-136.5177
30.5	8.629579e-5	-150.7222
31	8.622405e-5	-164.8807
31.5	8.601317e-5	-179.2241
32	8.587287e-5	166.4946
32.5	8.557653e-5	152.2325
33	8.5321e-5	137.8421
33.5	8.538668e-5	123.5267
34	8.516326e-5	109.2266
34.5	8.495635e-5	94.91209
35	8.485014e-5	80.6597
35.5	8.507291e-5	66.4343
36	8.482634e-5	52.28971
36.5	8.471629e-5	37.778
37	8.496736e-5	23.46401
37.5	8.503634e-5	9.307013
38	8.499662e-5	-4.932374
38.5	8.497525e-5	-19.25568
39	8.493286e-5	-33.61517
39.5	8.490143e-5	-47.78526
40	8.467543e-5	-62.00146
40.5	8.460641e-5	-76.39995
41	8.454345e-5	-90.58393
41.5	8.439265e-5	-104.8926
42	8.42059e-5	-118.9911
42.5	8.395046e-5	-133.0926
43	8.387622e-5	-147.4294
43.5	8.366021e-5	-161.6486
44	8.345891e-5	-175.9481
44.5	8.328821e-5	169.8278
45	8.316876e-5	155.5062
45.5	8.313426e-5	141.1352
46	8.278481e-5	126.9646
46.5	8.246657e-5	112.7076
47	8.228864e-5	98.38625
47.5	8.233073e-5	84.07701
48	8.211877e-5	69.83253
48.5	8.191167e-5	55.49463
49	8.207266e-5	41.29226
49.5	8.199476e-5	27.11795
50	8.17281e-5	12.71561
50.5	8.170966e-5	-1.617676
51	8.189605e-5	-15.86791
51.5	8.177215e-5	-30.06849
52	8.142356e-5	-44.38207
52.5	8.133933e-5	-58.64931
53	8.145248e-5	-72.85677
53.5	8.123321e-5	-86.97206
54	8.106403e-5	-101.4011
54.5	8.095441e-5	-115.7035
55	8.080664e-5	-129.6327
55.5	8.054352e-5	-143.8984
56	8.038704e-5	-158.2176
56.5	8.006605e-5	-172.4493
57	7.986672e-5	173.1938
57.5	7.9802e-5	159.0747
58	7.963399e-5	144.7514
58.5	7.950982e-5	130.3886
59	7.922877e-5	116.1773
59.5	7.928827e-5	101.8585
60	7.910983e-5	87.71641
60.5	7.885982e-5	73.24983
61	7.882571e-5	59.01902
61.5	7.863689e-5	44.8452
62	7.866079e-5	30.54343
62.5	7.840041e-5	16.31179
63	7.82057e-5	2.00913
63.5	7.805479e-5	-12.13748
64	7.773491e-5	-26.46125
64.5	7.817752e-5	-40.99627
65	7.794651e-5	-55.04599
65.5	7.762364e-5	-69.22951
66	7.768073e-5	-83.5056
66.5	7.740494e-5	-97.5221
67	7.704915e-5	-111.8792
67.5	7.69805e-5	-126.1698
68	7.675568e-5	-140.1997
68.5	7.648172e-5	-154.5311
69	7.645365e-5	-168.834
69.5	7.615027e-5	176.8385
70	7.597677e-5	162.5586
70.5	7.575927e-5	148.3372
71	7.558826e-5	134.1
71.5	7.544237e-5	119.8569
72	7.495234e-5	105.6258
72.5	7.483046e-5	91.34108
73	7.493529e-5	77.05338
73.5	7.482033e-5	62.81821
74	7.449631e-5	48.52559
74.5	7.432919e-5	34.19035
75	7.426771e-5	19.95565
75.5	7.404118e-5	5.73582
76	7.376182e-5	-8.673456
76.5	7.375194e-5	-22.85172
77	7.369553e-5	-37.04013
77.5	7.355552e-5	-51.18182
78	7.319436e-5	-65.4433
78.5	7.30901e-5	-79.77754
79	7.299098e-5	-93.80358
79.5	7.271758e-5	-108.0755
80	7.255115e-5	-122.3981
80.5	7.241082e-5	-136.5143
81	7.210632e-5	-150.7383
81.5	7.190063e-5	-165.1054
82	7.177809e-5	-179.2545
82.5	7.155685e-5	166.496
83	7.129519e-5	152.2001
83.5	7.108922e-5	137.8002
84	7.097102e-5	123.655
84.5	7.071337e-5	109.4362
85	7.049142e-5	95.15473
85.5	7.037423e-5	80.87946
86	6.996066e-5	66.7316
86.5	6.979067e-5	52.42671
87	6.969346e-5	38.13489
87.5	6.961963e-5	23.96746
88	6.935353e-5	9.757184
88.5	6.932634e-5	-4.587524
89	6.913221e-5	-18.76321
89.5	6.889334e-5	-32.94509
90	6.863725e-5	-47.20481
90.5	6.857717e-5	-61.44957
91	6.851919e-5	-75.51257
91.5	6.811969e-5	-89.80315
92	6.790539e-5	-104.0087
92.5	6.754454e-5	-118.1032
93	6.750135e-5	-132.5957
93.5	6.732682e-5	-146.7699
94	6.701597e-5	-160.9566
94.5	6.67081e-5	-175.2018
95	6.656338e-5	170.565
95.5	6.640174e-5	156.2574
96	6.63133e-5	141.9989
96.5	6.595646e-5	127.899
97	6.563546e-5	113.5746
97.5	6.540355e-5	99.27987
98	6.522143e-5	85.02766
98.5	6.510434e-5	70.7105
99	6.503601e-5	56.52974
99.5	6.473655e-5	42.35189
100	6.44336e-5	28.10179
100.5	6.437606e-5	13.77746
101	6.422196e-5	-0.4616706
101.5	6.407097e-5	-14.62648
102	6.376854e-5	-28.76247
102.5	6.363649e-5	-43.16132
103	6.34799e-5	-57.33535
103.5	6.316133e-5	-71.46709
104	6.305357e-5	-85.74124
104.5	6.287776e-5	-99.87666
105	6.263656e-5	-114.1167
105.5	6.248931e-5	-128.3371
106	6.230014e-5	-142.4439
106.5	6.206022e-5	-156.6688
107	6.187121e-5	-170.9474
107.5	6.154572e-5	174.888
108	6.136706e-5	160.7197
108.5	6.100025e-5	146.4187
109	6.069444e-5	132.1236
109.5	6.050726e-5	117.8319
110	6.038905e-5	103.6308
110.5	6.011809e-5	89.37889
111	5.986977e-5	75.14645
111.5	5.965613e-5	60.91714
112	5.967488e-5	46.71235
112.5	5.957451e-5	32.52517
113	5.926919e-5	18.24205
113.5	5.901086e-5	4.122202
114	5.87934e-5	-10.06064
114.5	5.870879e-5	-24.40571
115	5.853849e-5	-38.50425
115.5	5.831614e-5	-52.86723
116	5.806731e-5	-67.00269
116.5	5.785593e-5	-81.1476
117	5.769022e-5	-95.29713
117.5	5.739185e-5	-109.494
118	5.731827e-5	-123.7535
118.5	5.712983e-5	-137.8455
119	5.648909e-5	-152.0282
119.5	5.643235e-5	-166.3539
120	5.630785e-5	179.525
120.5	5.608308e-5	165.2436
121	5.578679e-5	151.0531
121.5	5.552093e-5	136.9048
122	5.525564e-5	122.7012
122.5	5.520019e-5	108.5941
123	5.491309e-5	94.15147
123.5	5.481616e-5	80.11402
124	5.446347e-5	65.86706
124.5	5.42597e-5	51.38203
125	5.428207e-5	37.35231
125.5	5.396294e-5	23.19224
126	5.365861e-5	8.919779
126.5	5.355452e-5	-5.349957
127	5.331675e-5	-19.59214
127.5	5.310889e-5	-33.60512
128	5.295491e-5	-47.91589
128.5	5.285954e-5	-62.40363
129	5.266059e-5	-76.13506
129.5	5.230845e-5	-90.27919
130	5.213839e-5	-104.5224
130.5	5.209403e-5	-118.7265
131	5.169122e-5	-132.8514
131.5	5.135258e-5	-146.9622
132	5.12207e-5	-161.1801
132.5	5.107075e-5	-175.3803
133	5.086515e-5	170.2849
133.5	5.054276e-5	156.0464
134	5.040482e-5	142.0669
134.5	5.004697e-5	127.8116
135	4.994027e-5	113.4889
135.5	4.980209e-5	99.22576
136	4.960758e-5	85.15902
136.5	4.939454e-5	70.86453
137	4.919589e-5	56.62794
137.5	4.907412e-5	42.39442
138	4.889256e-5	28.41897
138.5	4.857998e-5	14.12661
139	4.844364e-5	-0.1025306
139.5	4.829308e-5	-14.28708
140	4.799533e-5	-28.35726
140.5	4.782314e-5	-42.45982
141	4.774412e-5	-56.93272
141.5	4.74113e-5	-70.98003
142	4.727656e-5	-84.86085
142.5	4.702114e-5	-99.08181
143	4.688617e-5	-113.0505
143.5	4.651792e-5	-127.3198
144	4.634173e-5	-141.5913
144.5	4.608818e-5	-155.8649
145	4.595835e-5	-170.0912
145.5	4.571522e-5	175.6755
146	4.542517e-5	161.6337
146.5	4.533108e-5	147.3691
147	4.508999e-5	133.2072
147.5	4.480861e-5	118.8907
148	4.476103e-5	104.8791
148.5	4.450906e-5	90.82511
149	4.423377e-5	76.37142
149.5	4.420675e-5	62.23278
150	4.382454e-5	48.24827
150.5	4.37761e-5	34.03163
151	4.373971e-5	19.7079
151.5	4.337815e-5	5.538661
152	4.32639e-5	-8.407784
152.5	4.302753e-5	-22.48065
153	4.288811e-5	-36.71478
153.5	4.260534e-5	-51.04395
154	4.234193e-5	-65.07284
154.5	4.223279e-5	-79.09509
155	4.208637e-5	-93.09059
155.5	4.192522e-5	-107.3386
156	4.164017e-5	-121.6454
156.5	4.147663e-5	-135.6279
157	4.110984e-5	-149.7957
157.5	4.092068e-5	-164.1806
158	4.091025e-5	-178.137
158.5	4.064234e-5	167.7149
159	4.036909e-5	153.4009
159.5	4.02543e-5	139.1542
160	4.003222e-5	125.1974
160.5	3.988222e-5	110.9265
161	3.973103e-5	96.8566
161.5	3.934227e-5	82.48034
162	3.937346e-5	68.4747
162.5	3.908614e-5	54.28967
163	3.89054e-5	39.84241
163.5	3.89177e-5	26.01257
164	3.875558e-5	11.96579
164.5	3.860273e-5	-2.223338
165	3.838683e-5	-16.32859
165.5	3.806956e-5	-30.40447
166	3.780808e-5	-44.65506
166.5	3.784517e-5	-58.90271
167	3.7758e-5	-72.67829
167.5	3.732936e-5	-86.78026
168	3.712222e-5	-100.9101
168.5	3.704994e-5	-115.3331
169	3.691584e-5	-129.419
169.5	3.667775e-5	-143.4287
170	3.648539e-5	-157.6302
170.5	3.626498e-5	-171.6319
171	3.6054e-5	174.3161
171.5	3.574457e-5	159.9194
172	3.561624e-5	145.8011
172.5	3.556556e-5	131.6319
173	3.55089e-5	117.3456
173.5	3.528833e-5	103.4208
174	3.508388e-5	89.10669
174.5	3.495778e-5	75.23047
175	3.478071e-5	61.04782
175.5	3.457082e-5	46.8499
176	3.450694e-5	32.68481
176.5	3.434086e-5	18.54319
177	3.42223e-5	4.520875
177.5	3.394059e-5	-9.590393
178	3.378075e-5	-23.60423
178.5	3.363491e-5	-37.71474
179	3.352783e-5	-51.97797
179.5	3.338726e-5	-66.06222
180	3.314535e-5	-80.07447
180.5	3.302817e-5	-94.27249
181	3.287094e-5	-108.3001
181.5	3.260713e-5	-122.5357
182	3.245069e-5	-136.8237
182.5	3.237202e-5	-150.7796
183	3.225942e-5	-164.8487
183.5	3.196471e-5	-178.8051
184	3.180555e-5	167.0839
184.5	3.161676e-5	152.9902
185	3.160803e-5	138.7623
185.5	3.133222e-5	124.5727
186	3.1077e-5	110.4776
186.5	3.100642e-5	96.55033
187	3.086728e-5	82.48142
187.5	3.075869e-5	67.95129
188	3.063615e-5	53.88671
188.5	3.05573e-5	39.91914
189	3.043733e-5	26.02552
189.5	3.034276e-5	11.79089
190	3.010011e-5	-2.525784
190.5	2.998127e-5	-16.54806
191	2.977071e-5	-30.34233
191.5	2.962836e-5	-44.40045
192	2.941563e-5	-58.46614
192.5	2.932155e-5	-72.98232
193	2.926023e-5	-86.9473
193.5	2.907133e-5	-100.7841
194	2.87991e-5	-114.9265
194.5	2.866445e-5	-129.2069
195	2.852175e-5	-143.1857
195.5	2.834743e-5	-157.1991
196	2.823352e-5	-171.1907
196.5	2.814043e-5	174.6629
197	2.796286e-5	160.6094
197.5	2.785947e-5	146.216
198	2.777943e-5	132.266
198.5	2.755145e-5	118.2129
199	2.752554e-5	103.9675
199.5	2.737876e-5	89.97245
200	2.713254e-5	75.63309
200.5	2.709843e-5	61.72036
201	2.680821e-5	47.61355
201.5	2.67345e-5	33.26261
202	2.675771e-5	19.54828
202.5	2.652162e-5	5.477124
203	2.645707e-5	-8.800821
203.5	2.624185e-5	-22.69925
204	2.624076e-5	-36.9548
204.5	2.623164e-5	-50.65287
205	2.596735e-5	-64.71136
205.5	2.580673e-5	-79.08264
206	2.56572e-5	-93.05764
206.5	2.564472e-5	-107.1585
207	2.555786e-5	-121.0706
207.5	2.524846e-5	-135.2887
208	2.519937e-5	-149.4882
208.5	2.514095e-5	-163.3231
209	2.484312e-5	-177.3777
209.5	2.470901e-5	168.4298
210	2.460132e-5	154.2783
210.5	2.452484e-5	140.3529
211	2.447014e-5	126.4127
211.5	2.421322e-5	112.1818
212	2.407267e-5	97.79093
212.5	2.395414e-5	83.79982
213	2.382531e-5	69.9156
213.5	2.378473e-5	56.02865
214	2.35626e-5	41.56836
214.5	2.355063e-5	27.36333
215	2.354675e-5	13.75552
215.5	2.33157e-5	-0.3869132
216	2.336387e-5	-14.74867
216.5	2.333432e-5	-28.55428
217	2.298811e-5	-42.43037
217.5	2.290344e-5	-56.55857
218	2.285796e-5	-70.83509
218.5	2.283092e-5	-84.55125
219	2.257445e-5	-98.56874
219.5	2.256486e-5	-112.769
220	2.231741e-5	-126.907
220.5	2.22796e-5	-141.0145
221	2.218069e-5	-154.8961
221.5	2.199652e-5	-169.2344
222	2.191695e-5	176.7147
222.5	2.180541e-5	162.9881
223	2.171399e-5	148.9993
223.5	2.170964e-5	134.8507
224	2.149762e-5	120.6367
224.5	2.132041e-5	106.4991
225	2.121849e-5	92.77149
225.5	2.106657e-5	78.71771
226	2.107056e-5	64.26391
226.5	2.093583e-5	50.05638
227	2.087586e-5	36.03572
227.5	2.078566e-5	21.99197
228	2.078321e-5	8.042663
228.5	2.06739e-5	-5.896729
229	2.061075e-5	-20.16227
229.5	2.052647e-5	-34.11498
230	2.039485e-5	-48.12218
230.5	2.028601e-5	-61.93138
231	1.997805e-5	-76.05433
231.5	1.99898e-5	-90.30927
232	2.004505e-5	-104.0663
232.5	1.980714e-5	-118.1701
233	1.982316e-5	-132.444
233.5	1.963594e-5	-146.1945
234	1.949451e-5	-160.3315
234.5	1.942767e-5	-174.8631
235	1.940633e-5	171.338
235.5	1.922149e-5	157.1053
236	1.917587e-5	143.026
236.5	1.906685e-5	128.8473
237	1.898284e-5	114.8971
237.5	1.890237e-5	101.3008
238	1.884773e-5	87.01915
238.5	1.867491e-5	72.9028
239	1.854345e-5	58.5211
239.5	1.855499e-5	44.63731
240	1.842676e-5	31.14793
240.5	1.83157e-5	16.5976
241	1.824178e-5	2.350431
241.5	1.811239e-5	-11.63167
242	1.80929e-5	-25.35132
242.5	1.798871e-5	-39.32679
243	1.799153e-5	-53.48822
243.5	1.798344e-5	-67.62118
244	1.767881e-5	-81.16708
244.5	1.763973e-5	-95.72817
245	1.765381e-5	-109.2858
245.5	1.740683e-5	-123.5904
246	1.735498e-5	-137.757
246.5	1.73562e-5	-151.7807
247	1.72179e-5	-165.5433
247.5	1.704355e-5	-179.8063
248	1.697672e-5	165.5937
248.5	1.706405e-5	151.6807
249	1.683963e-5	137.9073
249.5	1.674041e-5	123.8497
250	1.670043e-5	109.695
250.5	1.668951e-5	95.61086
251	1.670751e-5	81.46631
251.5	1.655207e-5	67.66183
252	1.642183e-5	53.48702
252.5	1.636938e-5	39.34172
253	1.634889e-5	25.19813
253.5	1.626062e-5	11.1609
254	1.608695e-5	-2.635736
254.5	1.606701e-5	-16.66002
255	1.616682e-5	-30.65249
255.5	1.589404e-5	-44.76582
256	1.587105e-5	-59.07402
256.5	1.580413e-5	-72.72845
257	1.566587e-5	-86.42368
257.5	1.569136e-5	-100.9601
258	1.563715e-5	-115.093
258.5	1.54384e-5	-129.0855
259	1.538993e-5	-143.2631
259.5	1.534573e-5	-157.3304
260	1.52706e-5	-171.337
260.5	1.518073e-5	174.8865
261	1.500928e-5	160.58
261.5	1.501623e-5	146.4863
262	1.501321e-5	132.4185
262.5	1.489228e-5	118.6025
263	1.476931e-5	104.5754
263.5	1.468944e-5	90.03634
264	1.46283e-5	76.04018
264.5	1.461134e-5	62.02389
265	1.450926e-5	48.41191
265.5	1.445017e-5	34.27754
266	1.429395e-5	20.02965
266.5	1.434945e-5	5.706331
267	1.424011e-5	-8.045429
267.5	1.424043e-5	-22.13856
268	1.416526e-5	-36.26392
268.5	1.404436e-5	-50.52694
269	1.398372e-5	-64.66014
269.5	1.39126e-5	-78.31922
270	1.389493e-5	-91.91819
270.5	1.382934e-5	-106.5792
271	1.371154e-5	-120.2943
271.5	1.349901e-5	-134.4379
272	1.344729e-5	-148.6195
272.5	1.344827e-5	-162.3533
273	1.344893e-5	-177.0565
273.5	1.346141e-5	169.4952
274	1.324975e-5	155.6227
274.5	1.323038e-5	141.3974
275	1.319558e-5	126.8752
275.5	1.311918e-5	113.1517
276	1.29399e-5	98.6838
276.5	1.291601e-5	84.55832
277	1.28916e-5	70.33658
277.5	1.280128e-5	56.56824
278	1.283034e-5	42.54797
278.5	1.270843e-5	28.45551
279	1.270206e-5	14.48312
279.5	1.256981e-5	0.3650312
280	1.260448e-5	-13.65277
280.5	1.24039e-5	-27.25782
281	1.240611e-5	-41.93358
281.5	1.240807e-5	-55.53717
282	1.226415e-5	-69.23405
282.5	1.228874e-5	-84.39916
283	1.226029e-5	-97.79573
283.5	1.220288e-5	-111.5406
284	1.198827e-5	-125.7447
284.5	1.187411e-5	-139.8973
285	1.182437e-5	-154.0129
285.5	1.178077e-5	-167.6572
286	1.177835e-5	177.5903
286.5	1.183205e-5	163.5818
287	1.163939e-5	149.8504
287.5	1.157668e-5	135.0157
288	1.163157e-5	121.4155
288.5	1.13773e-5	107.2034
289	1.142177e-5	93.02344
289.5	1.137549e-5	79.4635
290	1.126295e-5	65.7104
290.5	1.123376e-5	50.88351
291	1.130915e-5	36.79786
291.5	1.119085e-5	22.8269
292	1.108869e-5	8.734322
292.5	1.111408e-5	-5.514632
293	1.101611e-5	-18.92131
293.5	1.083598e-5	-32.74478
294	1.084979e-5	-46.80449
294.5	1.075897e-5	-61.08795
295	1.076702e-5	-75.42827
295.5	1.072723e-5	-89.54155
296	1.061592e-5	-103.5307
296.5	1.062429e-5	-117.6431
297	1.042682e-5	-131.2868
297.5	1.042593e-5	-145.7166
298	1.037179e-5	-159.1575
298.5	1.028427e-5	-173.0098
299	1.02121e-5	172.5019
299.5	1.015059e-5	157.9143
300	1.019537e-5	143.9193
300.5	1.011619e-5	129.9429
301	1.005071e-5	116.1777
301.5	9.996719e-6	101.9467
302	9.928094e-6	88.13597
302.5	9.81923e-6	73.58757
303	9.787658e-6	59.52842
303.5	9.771926e-6	46.01451
304	9.720117e-6	31.5592
304.5	9.727085e-6	17.49191
305	9.602551e-6	3.173932
305.5	9.58814e-6	-10.23092
306	9.554626e-6	-24.21045
306.5	9.514245e-6	-39.03848
307	9.352305e-6	-53.00743
307.5	9.362111e-6	-66.34805
308	9.325549e-6	-80.29844
308.5	9.306847e-6	-94.04828
309	9.212925e-6	-108.6154
309.5	9.128385e-6	-121.9897
310	8.953834e-6	-136.3471
310.5	8.964056e-6	-151.0735
311	8.951224e-6	-165.4346
311.5	8.81944e-6	-178.9063
312	8.818464e-6	167.2525
312.5	8.630324e-6	153.221
313	8.693102e-6	138.4437
313.5	8.77718e-6	123.9513
314	8.642331e-6	110.0788
314.5	8.632977e-6	95.90125
315	8.557104e-6	82.23063
315.5	8.524139e-6	68.12965
316	8.519395e-6	53.11486
316.5	8.521896e-6	39.46934
317	8.496019e-6	26.44771
317.5	8.253921e-6	12.50116
318	8.312598e-6	-2.435165
318.5	8.363006e-6	-16.75096
319	8.202953e-6	-30.07825
319.5	8.0667e-6	-43.07343
320	8.045631e-6	-57.17257
320.5	8.049881e-6	-71.53295
321	7.934305e-6	-85.51191
321.5	7.754369e-6	-100.3193
322	7.866877e-6	-113.8116
322.5	7.965278e-6	-127.7554
323	7.797714e-6	-142.1313
323.5	7.791164e-6	-156.3689
324	7.568224e-6	-170.1773
324.5	7.654055e-6	175.5538
325	7.575463e-6	161.4577
325.5	7.445954e-6	146.7254
326	7.478195e-6	132.6029
326.5	7.411413e-6	120.2398
327	7.276216e-6	105.2182
327.5	7.356659e-6	90.95493
328	7.332142e-6	77.1248
328.5	7.225743e-6	63.42567
329	7.235235e-6	49.99523
329.5	7.136009e-6	35.49812
330	7.098459e-6	21.06962
330.5	7.03156e-6	6.796556
331	7.069031e-6	-7.511858
331.5	7.069395e-6	-21.10611
332	6.974779e-6	-34.79062
332.5	6.937805e-6	-48.98125
333	6.765989e-6	-62.26169
333.5	6.805891e-6	-77.08839
334	6.763409e-6	-90.84415
334.5	6.825249e-6	-104.5375
335	6.771601e-6	-118.6469
335.5	6.636966e-6	-132.583
336	6.537256e-6	-146.2858
336.5	6.512222e-6	-160.3354
337	6.466913e-6	-174.8313
337.5	6.421543e-6	171.1895
338	6.322856e-6	156.727
338.5	6.302034e-6	142.2311
339	6.3336e-6	128.4048
339.5	6.303667e-6	115.5156
340	6.271019e-6	101.3005
340.5	6.198809e-6	86.27984
341	6.084981e-6	72.38066
341.5	6.090031e-6	58.43833
342	6.173496e-6	45.11622
342.5	6.198241e-6	30.67171
343	5.987157e-6	15.53119
343.5	5.948631e-6	1.236312
344	6.073225e-6	-11.06445
344.5	5.988988e-6	-24.01284
345	5.834208e-6	-39.37747
345.5	5.692488e-6	-54.37307
346	5.780003e-6	-67.40324
346.5	5.718994e-6	-80.75265
347	5.750189e-6	-95.69518
347.5	5.721663e-6	-109.751
348	5.584359e-6	-123.3825
348.5	5.47679e-6	-137.4003
349	5.460891e-6	-151.2518
349.5	5.510417e-6	-165.9106
350	5.410546e-6	-179.2836
