Source File Name:	6,1,2
Signal:	FFT - Vib Velocity - Mag. & Phase

Frequency	Magnitude	Phase
[ Hz ]	[ m/s ]	[ ° ]
20	39.21811	-64.86313
20.5	37.96036	-93.74969
21	33.25213	-118.0701
21.5	29.33605	-139.7842
22	26.53807	-163.8475
22.5	23.25975	-178.9236
23	20.81017	159.1842
23.5	19.04663	145.367
24	17.71122	129.9328
24.5	15.95125	114.6857
25	15.42036	98.77854
25.5	14.55807	87.4837
26	14.21453	73.21774
26.5	13.86245	59.05539
27	13.43824	43.7991
27.5	13.18507	28.265
28	12.76476	13.64826
28.5	12.53228	-1.472231
29	12.16403	-16.25029
29.5	12.07758	-31.1882
30	11.92217	-46.02756
30.5	11.77092	-61.6198
31	11.64246	-76.53664
31.5	11.48098	-91.66588
32	11.57352	-106.3231
32.5	11.37764	-121.807
33	11.34728	-136.7016
33.5	11.99893	-154.0921
34	11.20026	-166.1852
34.5	11.21713	178.0466
35	11.22444	163.129
35.5	11.23806	148.6784
36	11.30008	133.0413
36.5	11.37375	118.1668
37	11.48147	101.8128
37.5	11.20731	86.06007
38	11.27031	70.60146
38.5	11.32501	55.65219
39	11.2049	39.07735
39.5	11.21746	23.11238
40	10.85079	7.134378
40.5	10.70849	-7.957841
41	10.31439	-23.16517
41.5	10.02257	-37.57718
42	9.941648	-50.90636
42.5	9.75805	-64.75334
43	9.948936	-78.23119
43.5	9.932918	-92.88512
44	10.00613	-106.2872
44.5	10.0003	-121.5152
45	10.11139	-135.2598
45.5	10.43897	-149.5351
46	10.67268	-165.2838
46.5	10.68408	-179.6504
47	10.88709	165.5039
47.5	11.07062	150.2003
48	11.09813	135.3019
48.5	11.25973	121.4694
49	11.51519	106.1632
49.5	11.89324	91.41676
50	11.67904	75.72842
50.5	12.02833	60.78717
51	12.05134	45.36599
51.5	12.19016	29.97404
52	12.30629	15.36672
52.5	12.51875	0.315378
53	12.88063	-13.91312
53.5	12.9771	-29.51978
54	13.17054	-43.35143
54.5	13.51489	-59.96387
55	13.85443	-75.1199
55.5	14.10716	-90.25322
56	14.42443	-105.7328
56.5	14.71005	-121.0519
57	15.05393	-136.55
57.5	15.40618	-151.7584
58	15.84591	-167.7263
58.5	16.12224	176.4444
59	16.38292	160.7972
59.5	16.74022	145.7014
60	17.18934	129.6975
60.5	17.6352	114.1992
61	17.98966	98.39841
61.5	18.55472	82.33176
62	18.96768	66.36688
62.5	19.46841	50.23124
63	19.87794	33.99125
63.5	20.38057	17.8434
64	20.84344	1.712146
64.5	21.3916	-14.82587
65	21.81966	-31.34481
65.5	22.36441	-47.61048
66	22.90121	-64.05038
66.5	23.47696	-80.99775
67	24.0657	-97.77862
67.5	24.55754	-114.386
68	25.25755	-131.3668
68.5	25.72829	-148.4587
69	26.39654	-165.5456
69.5	27.03144	177.2707
70	27.73528	159.6698
70.5	28.22351	142.0112
71	28.80131	124.0081
71.5	29.259	106.2989
72	29.71171	88.28245
72.5	30.18955	70.01141
73	30.5244	51.40471
73.5	30.85554	32.64503
74	30.90959	14.03853
74.5	31.08038	-5.085531
75	30.80599	-24.30461
75.5	30.56833	-43.49602
76	30.1184	-63.10089
76.5	29.32836	-82.60985
77	28.49309	-102.2288
77.5	27.33627	-121.539
78	26.06396	-140.9669
78.5	24.64125	-159.8177
79	23.15337	-178.287
79.5	21.75754	163.0838
80	20.22875	145.4535
80.5	18.91379	127.9687
81	17.6599	110.4555
81.5	16.31613	93.43285
82	15.25195	76.78579
82.5	14.13502	59.86327
83	13.02839	43.24132
83.5	12.04992	27.48239
84	11.06131	10.85859
84.5	10.17232	-4.834813
85	9.209913	-20.69261
85.5	8.455296	-35.91803
86	7.560562	-50.61797
86.5	6.82355	-64.47314
87	6.20449	-78.02631
87.5	5.5358	-92.18262
88	4.849983	-102.5497
88.5	4.492162	-113.5317
89	4.146933	-123.7119
89.5	3.787755	-133.9491
90	3.579884	-141.5623
90.5	3.377961	-150.838
91	3.391995	-157.8238
91.5	3.345088	-166.797
92	3.398345	-175.7454
92.5	3.536926	177.0256
93	3.775273	164.1324
93.5	3.931571	153.5719
94	4.035451	141.4843
94.5	4.39042	130.1242
95	4.640234	115.5772
95.5	4.821706	101.5327
96	4.917821	86.68471
96.5	5.066978	73.46838
97	5.230447	59.62058
97.5	5.462676	44.87111
98	5.534451	30.22191
98.5	5.684155	15.81777
99	5.837097	2.068678
99.5	6.014269	-13.83846
100	6.13774	-28.0984
100.5	6.181292	-43.67474
101	6.326007	-57.27272
101.5	6.439693	-72.65408
102	6.600688	-87.71401
102.5	6.656302	-102.7139
103	6.73697	-117.1401
103.5	6.878632	-131.6524
104	7.08539	-146.6266
104.5	7.3045	-161.5066
105	7.383301	-177.3777
105.5	7.603735	167.507
106	7.638332	151.8501
106.5	7.773772	137.1038
107	7.975963	122.2485
107.5	8.211081	106.126
108	8.346135	90.2389
108.5	8.396701	73.93304
109	8.515383	59.15564
109.5	8.689241	43.3356
110	8.867332	27.68795
110.5	9.04882	11.32886
111	9.195336	-5.192502
111.5	9.277134	-21.67285
112	9.430898	-38.0565
112.5	9.404429	-54.82563
113	9.538434	-70.80672
113.5	9.679039	-87.55428
114	9.832316	-105.4756
114.5	9.669634	-122.881
115	9.597996	-140.4315
115.5	9.417158	-156.5454
116	9.339874	-173.9952
116.5	9.170609	169.3814
117	9.030113	152.2378
117.5	8.835295	135.4408
118	8.544074	118.5518
118.5	8.496117	101.4909
119	8.116538	84.2319
119.5	7.864053	66.77123
120	7.430578	49.52906
120.5	6.998865	32.97087
121	6.564096	17.48539
121.5	6.225298	0.8281433
122	5.789401	-14.71571
122.5	5.324265	-31.39593
123	4.817802	-44.55144
123.5	4.451482	-58.00085
124	4.10283	-71.89908
124.5	3.674366	-83.91717
125	3.374525	-94.21449
125.5	3.157717	-101.5674
126	3.158095	-111.8817
126.5	2.973847	-119.9417
127	3.071976	-126.3352
127.5	3.299799	-135.9433
128	3.526644	-147.2478
128.5	3.850217	-159.4695
129	3.996295	-174.0654
129.5	4.348946	172.9213
130	4.52248	157.3091
130.5	4.738424	142.328
131	4.908855	127.404
131.5	5.067312	111.3912
132	5.30834	96.01994
132.5	5.319769	78.85596
133	5.422462	63.96851
133.5	5.532508	47.81882
134	5.566644	31.37111
134.5	5.58578	15.6656
135	5.655362	-0.5131991
135.5	5.606863	-16.82793
136	5.643562	-32.53376
136.5	5.569262	-49.23719
137	5.520383	-65.11268
137.5	5.418041	-81.09194
138	5.267992	-96.87227
138.5	5.167283	-111.5017
139	5.028675	-126.695
139.5	5.085561	-140.4754
140	4.990326	-157.0353
140.5	4.893888	-172.0943
141	4.781095	173.5157
141.5	4.731297	158.8599
142	4.655138	143.8187
142.5	4.595549	129.156
143	4.579233	113.9408
143.5	4.414434	98.39185
144	4.268071	83.66505
144.5	4.128986	70.22697
145	4.081579	56.36296
145.5	3.988003	42.1809
146	3.94818	27.67119
146.5	3.767122	12.96045
147	3.681544	1.335362
147.5	3.637636	-12.86464
148	3.588213	-26.02592
148.5	3.535428	-38.9645
149	3.474285	-51.65437
149.5	3.581371	-65.59309
150	3.394557	-80.55832
150.5	3.3343	-91.50886
151	3.314127	-103.2614
151.5	3.404695	-115.5175
152	3.468286	-127.8526
152.5	3.511097	-141.2736
153	3.582849	-152.9583
153.5	3.747748	-166.1735
154	3.840749	179.3728
154.5	3.926017	167.269
155	4.188869	153.4286
155.5	4.364758	138.5569
156	4.545239	122.2941
156.5	4.52502	108.0113
157	4.705659	93.14787
157.5	4.829331	77.93873
158	4.926861	63.40905
158.5	5.117307	47.61154
159	5.177492	31.63191
159.5	5.273845	16.13676
160	5.344123	0.5972569
160.5	5.426509	-15.78634
161	5.407068	-31.12056
161.5	5.5413	-47.05753
162	5.491812	-63.63017
162.5	5.458001	-79.62262
163	5.380275	-95.01567
163.5	5.328981	-110.7974
164	5.199268	-125.8515
164.5	5.112654	-139.8485
165	5.20464	-154.6864
165.5	5.063422	-170.286
166	5.005995	175.5283
166.5	4.939098	161.2454
167	4.925906	146.8417
167.5	4.822119	132.757
168	4.804286	118.9975
168.5	4.758611	104.9519
169	4.757325	91.40169
169.5	4.725017	78.13811
170	4.725331	64.30522
170.5	4.780181	51.26637
171	4.77013	38.37716
171.5	4.929516	24.5841
172	4.966522	11.09227
172.5	5.130513	-2.493971
173	5.216446	-16.14677
173.5	5.399761	-30.4401
174	5.575966	-45.02471
174.5	5.641443	-58.93853
175	5.900756	-73.6926
175.5	6.060185	-88.02981
176	6.290433	-103.63
176.5	6.425293	-118.7374
177	6.570572	-133.8409
177.5	6.778855	-148.9465
178	6.952507	-164.5922
178.5	7.084327	179.6666
179	7.1903	164.3858
179.5	7.330726	149.2762
180	7.524723	133.7997
180.5	7.706678	117.9709
181	7.752657	102.3701
181.5	8.022453	86.94492
182	8.098141	71.09076
182.5	8.313999	54.64236
183	8.324634	38.89134
183.5	8.450509	22.74941
184	8.581817	7.119081
184.5	8.586637	-9.632422
185	8.62447	-25.23769
185.5	8.602463	-40.90912
186	8.710751	-56.35635
186.5	8.756516	-72.33067
187	8.856635	-88.19435
187.5	8.798919	-104.1832
188	8.858263	-119.7864
188.5	8.816997	-135.3438
189	8.951868	-150.9211
189.5	8.919835	-166.7144
190	8.958502	177.2461
190.5	8.917809	161.9861
191	8.926111	146.1336
191.5	8.955061	131.1673
192	8.970702	115.2952
192.5	9.075106	99.77212
193	9.011622	83.8782
193.5	9.063395	68.35976
194	8.996248	52.49177
194.5	9.002033	37.29876
195	9.028561	22.14642
195.5	9.081939	6.169547
196	9.130229	-9.301242
196.5	9.112811	-25.49883
197	9.047869	-41.10822
197.5	9.042843	-56.47034
198	9.06366	-71.89413
198.5	9.12359	-87.60374
199	9.09709	-103.8566
199.5	9.002522	-119.3307
200	9.055148	-134.6355
200.5	8.998254	-150.5835
201	8.992181	-165.9535
201.5	9.02326	178.472
202	8.999898	162.5749
202.5	9.041564	147.2449
203	9.035984	130.2984
203.5	8.901525	114.8927
204	8.785707	99.30415
204.5	8.83523	83.97837
205	8.785135	68.24353
205.5	8.762508	51.80057
206	8.61725	36.72552
206.5	8.60464	20.72049
207	8.569568	5.465922
207.5	8.50713	-10.75966
208	8.471074	-26.39956
208.5	8.321535	-42.28197
209	8.339983	-57.94503
209.5	8.21053	-74.18813
210	8.027664	-89.71632
210.5	7.972373	-105.1337
211	7.870544	-120.7193
211.5	7.787026	-135.9196
212	7.787177	-152.0001
212.5	7.612362	-167.9715
213	7.467027	176.3831
213.5	7.331965	161.6863
214	7.271351	145.6242
214.5	7.184838	130.6231
215	7.023958	114.7569
215.5	6.965483	99.5062
216	6.766407	83.83659
216.5	6.689535	68.9995
217	6.581562	53.60515
217.5	6.446202	37.71629
218	6.326561	23.26881
218.5	6.212089	7.235809
219	6.021928	-7.637703
219.5	5.851368	-22.45121
220	5.779239	-36.28746
220.5	5.678244	-51.55576
221	5.631322	-65.72576
221.5	5.552575	-80.8484
222	5.519034	-96.13993
222.5	5.347546	-111.007
223	5.273478	-125.9003
223.5	5.166556	-140.2389
224	5.077731	-154.8592
224.5	4.992781	-169.0949
225	4.87852	176.0858
225.5	4.844364	162.9248
226	4.815177	148.6701
226.5	4.836587	133.7467
227	4.720875	119.0394
227.5	4.701437	105.3381
228	4.677499	90.68137
228.5	4.669433	75.67887
229	4.572155	61.27845
229.5	4.519337	46.85314
230	4.459244	33.34111
230.5	4.456215	19.59408
231	4.549325	5.244843
231.5	4.499766	-9.766362
232	4.511815	-24.29075
232.5	4.4744	-38.70579
233	4.477067	-53.51126
233.5	4.450004	-67.0567
234	4.513112	-81.73689
234.5	4.543457	-96.771
235	4.510046	-111.6063
235.5	4.520407	-125.5781
236	4.555948	-140.6051
236.5	4.568855	-155.4216
237	4.54928	-169.6733
237.5	4.655428	175.4966
238	4.630825	159.8882
238.5	4.645552	144.7773
239	4.57596	130.8586
239.5	4.630874	115.4635
240	4.67924	101.5969
240.5	4.698229	85.33138
241	4.666577	71.12074
241.5	4.662784	56.24795
242	4.776642	41.5767
242.5	4.753978	25.96469
243	4.759795	10.044
243.5	4.67003	-3.673301
244	4.775328	-18.37512
244.5	4.834529	-33.426
245	4.849019	-49.49453
245.5	4.854909	-63.97245
246	4.884679	-79.48914
246.5	4.979269	-94.47435
247	4.937536	-111.3427
247.5	4.898242	-125.6912
248	4.959319	-140.7995
248.5	4.966127	-157.023
249	4.896621	-172.0929
249.5	4.895093	172.6657
250	4.878468	158.7631
250.5	5.022158	143.0301
251	5.009263	127.3668
251.5	4.995844	111.099
252	4.950957	96.91885
252.5	4.998976	81.52184
253	5.123908	66.05223
253.5	5.04261	49.16116
254	5.037328	34.15874
254.5	4.999787	18.67175
255	5.034126	2.49061
255.5	4.915457	-11.90112
256	4.955475	-27.67228
256.5	5.019145	-42.00211
257	5.047509	-58.95103
257.5	5.011419	-74.02311
258	5.011082	-89.79396
258.5	5.069956	-105.2124
259	5.060738	-121.422
259.5	5.072176	-137.4836
260	5.017323	-153.319
260.5	5.038431	-169.3913
261	4.940622	174.9513
261.5	4.971483	159.0719
262	4.895662	143.6707
262.5	4.927556	127.6274
263	4.873968	112.2299
263.5	4.840475	95.75748
264	4.856387	81.09775
264.5	4.834062	64.39503
265	4.829376	48.36192
265.5	4.742837	32.3254
266	4.760168	16.56147
266.5	4.736251	0.9047435
267	4.755281	-16.61468
267.5	4.590882	-32.84694
268	4.561812	-48.43767
268.5	4.504139	-64.43262
269	4.472189	-81.0903
269.5	4.387481	-97.11568
270	4.256822	-113.1747
270.5	4.285571	-128.4175
271	4.1772	-146.0167
271.5	4.075108	-161.5455
272	3.929245	-176.6938
272.5	3.963187	167.5619
273	3.914133	152.3123
273.5	3.898077	134.2355
274	3.726742	118.36
274.5	3.60154	102.5175
275	3.558507	87.62233
275.5	3.484812	71.64417
276	3.449765	55.36374
276.5	3.291788	39.37761
277	3.303079	24.23586
277.5	3.152943	7.440627
278	3.100107	-7.933352
278.5	2.975299	-23.329
279	2.955459	-38.80747
279.5	2.858941	-53.64646
280	2.879308	-70.73587
280.5	2.784574	-86.6142
281	2.660194	-103.62
281.5	2.597204	-117.9516
282	2.484517	-134.2495
282.5	2.484472	-148.4679
283	2.382194	-165.0736
283.5	2.354706	178.9736
284	2.194196	164.0445
284.5	2.228021	149.832
285	2.153495	133.287
285.5	2.131716	117.2753
286	2.066123	102.1485
286.5	2.057407	84.68715
287	1.965587	67.55486
287.5	1.835661	49.91885
288	1.76557	36.37843
288.5	1.60896	18.21941
289	1.568557	7.176995
289.5	1.512665	-8.626554
290	1.509001	-24.5555
290.5	1.377857	-39.69416
291	1.401555	-55.37486
291.5	1.301947	-71.42352
292	1.247943	-86.338
292.5	1.248284	-101.4374
293	1.164589	-121.3826
293.5	1.098685	-135.6377
294	0.9583529	-151.2638
294.5	1.007431	-165.7402
295	0.8614936	174.7486
295.5	0.7426943	163.5098
296	0.7385222	154.7637
296.5	0.6996295	138.3833
297	0.6907971	126.887
297.5	0.6480374	110.3065
298	0.6201371	96.03046
298.5	0.6069988	80.10414
299	0.5438875	56.9741
299.5	0.4261354	40.89335
300	0.3344971	33.83958
300.5	0.2905174	25.96992
301	0.3230951	19.45222
301.5	0.2014876	3.71607
302	0.2211839	1.20565
302.5	0.1910542	6.608854
303	0.1598265	2.76757
303.5	0.2768237	-1.110545
304	0.2017657	-16.57743
304.5	0.2469033	-35.45952
305	0.1922968	-14.85552
305.5	0.242745	-29.4041
306	0.3226807	-41.95692
306.5	0.2982056	-51.224
307	0.3797777	-64.23833
307.5	0.3798142	-68.2623
308	0.5113044	-87.52078
308.5	0.5617484	-106.3561
309	0.5404447	-120.7911
309.5	0.6239158	-135.7056
310	0.6429743	-153.6326
310.5	0.655143	-165.3129
311	0.717284	179.1912
311.5	0.8022368	166.9331
312	0.8955373	142.263
312.5	0.8248031	126.3565
313	0.83075	113.5228
313.5	0.9202477	95.87896
314	0.8719914	83.85083
314.5	1.037103	65.57076
315	0.9968556	47.45905
315.5	1.022211	30.01901
316	1.050568	15.46744
316.5	1.026877	-2.721547
317	1.089193	-16.03555
317.5	1.107693	-34.86488
318	1.14054	-50.49412
318.5	1.135916	-69.73528
319	1.087386	-84.29781
319.5	1.182711	-96.34717
320	1.239015	-119.1451
320.5	1.15771	-134.8622
321	1.204384	-152.5333
321.5	1.123058	-167.2414
322	1.189005	177.8465
322.5	1.181754	158.9187
323	1.123897	142.965
323.5	1.130719	130.7774
324	1.15363	112.9047
324.5	1.169379	97.17305
325	1.131489	80.47091
325.5	1.116585	65.79955
326	1.139259	52.99075
326.5	1.188454	34.12056
327	1.174145	21.20128
327.5	1.238627	0.6271513
328	1.206929	-14.276
328.5	1.206215	-32.40841
329	1.213836	-49.55232
329.5	1.145134	-64.55997
330	1.190338	-81.39169
330.5	1.154493	-96.06268
331	1.171757	-113.8271
331.5	1.16115	-127.0866
332	1.205472	-146.5412
332.5	1.180758	-162.5012
333	1.144575	-179.8091
333.5	1.163022	165.4858
334	1.162774	146.881
334.5	1.114079	130.5197
335	1.077665	113.8546
335.5	1.060708	100.4209
336	1.070371	85.31305
336.5	1.10804	67.14101
337	1.017593	50.42894
337.5	1.057532	34.43805
338	0.9919554	22.30941
338.5	1.077514	1.987163
339	1.009727	-13.21558
339.5	1.01192	-31.05964
340	1.021186	-46.38118
340.5	0.9350379	-66.78825
341	0.9481322	-78.39005
341.5	0.9013472	-96.70234
342	0.8813876	-112.2
342.5	0.8261615	-124.4578
343	0.87482	-140.0688
343.5	0.8561016	-153.0739
344	0.8852651	-173.9541
344.5	0.8099436	172.9163
345	0.8158107	156.0515
345.5	0.7848424	145.6944
346	0.8182999	129.4132
346.5	0.8457124	110.7521
347	0.7297375	97.29037
347.5	0.8004971	87.17622
348	0.8348684	68.89841
348.5	0.8291177	50.73172
349	0.7688532	36.33436
349.5	0.8028986	23.17851
350	0.8124306	8.153807
