Source File Name:	6,2,2
Signal:	FFT - Vib Velocity - Mag. & Phase

Frequency	Magnitude	Phase
[ Hz ]	[ m/s ]	[ ° ]
20	6.374339	-69.17458
20.5	6.973273	-99.19966
21	5.754322	-126.9475
21.5	3.891907	-134.0694
22	3.617021	-161.2195
22.5	3.58036	165.5073
23	5.64875	168.3614
23.5	3.992554	151.9333
24	3.820263	131.6425
24.5	3.785809	113.1979
25	4.120211	97.80534
25.5	3.522509	90.10144
26	3.49575	71.10715
26.5	3.405345	57.63807
27	3.41071	39.84513
27.5	3.186305	25.7162
28	3.263876	11.78495
28.5	3.335863	-5.959728
29	3.327379	-21.11249
29.5	3.401226	-39.32948
30	3.406193	-57.03821
30.5	3.434059	-74.69663
31	3.557596	-91.64703
31.5	3.551297	-108.4962
32	3.554789	-128.8913
32.5	3.413449	-145.4638
33	3.466176	-158.514
33.5	4.426941	173.9349
34	3.587769	167.6997
34.5	3.528812	147.4385
35	3.241915	129.4036
35.5	2.949573	114.5764
36	2.819257	99.43089
36.5	2.591537	84.28414
37	2.399572	71.42642
37.5	1.9799	57.05193
38	1.987607	49.64582
38.5	1.950495	43.43987
39	1.886621	36.64106
39.5	2.103565	24.56115
40	2.156906	11.05482
40.5	2.427623	-2.054701
41	2.373306	-16.31821
41.5	2.604035	-27.88715
42	2.765785	-44.04534
42.5	2.887535	-59.16819
43	3.014497	-73.13564
43.5	3.066999	-90.10872
44	3.20712	-105.0227
44.5	3.174224	-123.5526
45	3.277009	-133.9737
45.5	3.359492	-151.087
46	3.372564	-165.9422
46.5	3.493316	-179.8433
47	3.530777	165.8403
47.5	3.634551	151.0914
48	3.772084	135.7041
48.5	3.80734	122.4199
49	3.210592	101.6335
49.5	4.057403	91.48907
50	4.123573	75.42622
50.5	4.204535	62.16055
51	4.186025	48.535
51.5	4.244171	33.97437
52	4.425117	18.28034
52.5	4.547594	3.180067
53	4.459573	-11.90685
53.5	4.72814	-27.48567
54	4.930304	-41.70818
54.5	4.770981	-57.48502
55	4.950316	-71.36878
55.5	5.159594	-86.85665
56	5.197821	-101.3997
56.5	5.369028	-115.7661
57	5.528281	-131.5764
57.5	5.660226	-145.6821
58	5.796339	-160.7544
58.5	6.062093	-175.4207
59	6.208348	168.5776
59.5	6.296633	153.7899
60	6.51545	139.8138
60.5	6.813956	124.6031
61	6.960741	109.2068
61.5	7.151333	93.95747
62	7.3986	79.24992
62.5	7.522437	64.40291
63	7.872137	49.1101
63.5	8.093513	33.89894
64	8.415436	18.48151
64.5	8.663829	2.716278
65	8.960979	-12.44054
65.5	9.267873	-28.04862
66	9.618159	-43.78758
66.5	9.96091	-59.34832
67	10.27271	-75.3447
67.5	10.79012	-91.64307
68	11.14066	-107.3124
68.5	11.66001	-123.5314
69	12.04578	-139.7329
69.5	12.61517	-156.3396
70	13.00332	-173.1104
70.5	13.51705	170.1227
71	13.93529	152.9807
71.5	14.3486	136.8168
72	15.05407	119.9185
72.5	15.44527	102.6707
73	15.93667	85.70863
73.5	16.51459	67.61885
74	16.81313	50.3345
74.5	17.34767	32.75375
75	17.67295	14.81507
75.5	18.07904	-3.324452
76	18.39227	-21.32671
76.5	18.71884	-39.53607
77	18.96781	-57.85393
77.5	19.10842	-76.44815
78	19.11685	-94.96973
78.5	19.23157	-113.6369
79	18.99692	-132.701
79.5	18.75545	-150.9311
80	18.47502	-169.6734
80.5	18.05703	171.8881
81	17.59102	153.2161
81.5	16.90621	134.8859
82	16.17969	116.7307
82.5	15.51218	99.46117
83	14.73486	81.76881
83.5	13.86775	64.97067
84	13.15328	48.81342
84.5	12.57043	32.88442
85	12.03632	16.41626
85.5	11.23773	0.5893193
86	10.72073	-14.02552
86.5	10.33004	-28.973
87	9.952383	-43.69122
87.5	9.624341	-59.25707
88	9.265542	-73.42293
88.5	9.158354	-88.29877
89	8.922518	-104.3558
89.5	8.607441	-119.7156
90	8.302303	-135.1695
90.5	7.962334	-149.6808
91	7.835167	-164.2118
91.5	7.5553	179.5554
92	7.164896	164.6791
92.5	6.922165	150.7391
93	6.632975	136.5445
93.5	6.321119	122.2146
94	6.144835	109.0767
94.5	5.947038	95.48012
95	5.849665	81.81104
95.5	5.645006	67.01621
96	5.361283	53.9025
96.5	5.186449	40.89677
97	4.995862	29.08316
97.5	4.940074	16.6171
98	4.857819	3.692135
98.5	4.734457	-8.004045
99	4.797461	-19.333
99.5	4.881212	-32.60302
100	4.886776	-45.98782
100.5	4.820176	-59.26868
101	4.911701	-70.3394
101.5	5.10351	-83.06378
102	5.210072	-96.67731
102.5	5.333584	-109.9387
103	5.5745	-124.1254
103.5	5.590167	-138.2498
104	5.791038	-151.2157
104.5	6.057205	-165.2026
105	6.221763	179.9554
105.5	6.491552	165.0619
106	6.609887	149.4368
106.5	6.635326	134.6534
107	6.742141	121.2916
107.5	7.104919	106.9335
108	7.304198	91.41864
108.5	7.501377	76.0134
109	7.706225	60.47329
109.5	7.909274	44.49894
110	7.95381	29.00316
110.5	8.149791	13.93798
111	8.343081	-1.990217
111.5	8.44492	-17.7065
112	8.73296	-33.04903
112.5	8.909746	-50.01915
113	8.954182	-66.40617
113.5	9.064541	-82.12666
114	9.247038	-98.65264
114.5	9.289147	-115.3357
115	9.337088	-131.9295
115.5	9.312406	-148.3563
116	9.352417	-164.4142
116.5	9.289187	178.834
117	9.284544	162.6518
117.5	9.277176	145.9516
118	9.10021	129.6863
118.5	9.039658	113.3048
119	8.818257	96.06985
119.5	8.497391	80.70097
120	8.371504	65.18037
120.5	8.094997	49.18509
121	7.840764	34.26648
121.5	7.676506	19.05056
122	7.422136	3.822142
122.5	7.237943	-10.41312
123	7.036319	-25.55685
123.5	6.813415	-39.66655
124	6.604553	-53.26867
124.5	6.490808	-67.03233
125	6.39878	-80.25076
125.5	6.3388	-93.90333
126	6.322939	-106.7367
126.5	6.392017	-121.0904
127	6.271517	-134.672
127.5	6.390367	-147.3832
128	6.523905	-161.5822
128.5	6.590049	-175.9035
129	6.622918	169.617
129.5	6.616824	156.2523
130	6.865167	142.2586
130.5	7.002573	127.4727
131	7.158607	112.0474
131.5	7.075414	96.87514
132	7.096473	82.69323
132.5	7.204941	68.61645
133	7.331594	54.34266
133.5	7.493757	39.39519
134	7.57425	24.1913
134.5	7.665043	8.959394
135	7.714717	-6.035547
135.5	7.77516	-20.89633
136	7.868259	-35.2256
136.5	8.113058	-50.38308
137	8.225416	-65.93176
137.5	8.315207	-81.92297
138	8.260041	-97.14809
138.5	8.430092	-111.9521
139	8.457533	-127.3084
139.5	8.543031	-142.0249
140	8.678304	-157.6189
140.5	8.7843	-172.8241
141	8.884261	172.076
141.5	9.026353	156.2745
142	9.030678	140.4296
142.5	9.022679	125.6045
143	9.185141	110.6528
143.5	9.301574	95.04212
144	9.341497	79.1133
144.5	9.379117	64.25078
145	9.577045	48.36379
145.5	9.466487	32.56795
146	9.590466	17.61429
146.5	9.62578	1.813675
147	9.702333	-13.24126
147.5	9.767497	-28.6488
148	9.937303	-44.46772
148.5	9.989448	-60.41221
149	10.00946	-76.21693
149.5	10.05715	-91.61237
150	10.11181	-107.3516
150.5	10.15004	-123.1964
151	10.20638	-138.2374
151.5	10.36343	-154.479
152	10.35182	-170.2376
152.5	10.45216	173.8634
153	10.44901	157.8596
153.5	10.45632	141.8436
154	10.41059	126.3191
154.5	10.51904	110.4023
155	10.46775	94.26762
155.5	10.45861	78.5769
156	10.46728	62.75644
156.5	10.47783	46.4115
157	10.35449	30.19418
157.5	10.25187	14.88522
158	10.28945	-1.186007
158.5	10.16357	-17.04596
159	10.11956	-32.97359
159.5	10.04213	-49.00353
160	9.896886	-64.62634
160.5	9.822987	-80.14059
161	9.772411	-95.81431
161.5	9.714641	-111.4539
162	9.614671	-127.2585
162.5	9.550206	-142.7036
163	9.526411	-158.7129
163.5	9.31848	-174.905
164	9.102774	170.6464
164.5	9.131154	155.7163
165	9.127957	140.0457
165.5	9.10251	124.4876
166	9.05175	108.6857
166.5	8.941929	93.02169
167	8.850356	77.02969
167.5	8.66123	61.78448
168	8.622633	46.92562
168.5	8.544607	31.46798
169	8.56328	16.3403
169.5	8.573433	-0.3186854
170	8.390159	-16.37282
170.5	8.243779	-32.008
171	8.077611	-47.97455
171.5	7.902826	-62.55669
172	7.841267	-77.69286
172.5	7.796281	-93.45226
173	7.665842	-109.1521
173.5	7.515956	-124.4087
174	7.430978	-139.4541
174.5	7.305671	-155.0735
175	7.156102	-170.1548
175.5	7.093258	174.8212
176	6.958195	159.846
176.5	6.930107	144.8555
177	6.752608	128.6338
177.5	6.546298	114.7606
178	6.566054	100.672
178.5	6.503479	84.798
179	6.380413	70.10719
179.5	6.259258	55.49437
180	6.236135	41.13755
180.5	6.213131	26.1823
181	6.203698	10.78327
181.5	6.102046	-4.738294
182	5.979459	-19.63696
182.5	5.844963	-34.08343
183	5.857254	-48.25137
183.5	5.808534	-63.28286
184	5.839256	-77.84096
184.5	5.834875	-93.61681
185	5.709639	-108.5298
185.5	5.722897	-123.5307
186	5.62719	-139.0171
186.5	5.594184	-152.8253
187	5.670967	-167.4036
187.5	5.752072	175.893
188	5.551058	159.4587
188.5	5.439491	145.4109
189	5.435613	130.7812
189.5	5.423157	115.1335
190	5.311481	99.64356
190.5	5.275617	84.88877
191	5.239613	69.74
191.5	5.199234	54.1125
192	5.145509	37.95554
192.5	4.979871	22.49931
193	4.850862	7.698373
193.5	4.779045	-7.082793
194	4.669294	-23.18265
194.5	4.498687	-37.14618
195	4.470197	-51.11061
195.5	4.404544	-66.07704
196	4.376	-81.78474
196.5	4.196387	-96.83368
197	4.115471	-110.5624
197.5	4.02569	-124.807
198	3.969654	-138.6952
198.5	4.000811	-152.7131
199	3.9619	-168.6077
199.5	3.81969	176.2877
200	3.684975	162.222
200.5	3.56032	148.8364
201	3.545375	136.9566
201.5	3.548439	123.1115
202	3.584656	108.7846
202.5	3.544524	93.81907
203	3.454916	80.58528
203.5	3.472527	66.98103
204	3.462	53.27443
204.5	3.47333	39.05767
205	3.49859	24.64816
205.5	3.412345	9.660232
206	3.399595	-3.021922
206.5	3.436222	-17.58076
207	3.395957	-31.81273
207.5	3.396935	-44.9738
208	3.429159	-59.14953
208.5	3.478431	-72.78029
209	3.553019	-87.16764
209.5	3.584785	-102.0466
210	3.594139	-117.4706
210.5	3.506187	-131.4369
211	3.605059	-143.9423
211.5	3.691592	-159.3157
212	3.68757	-172.8941
212.5	3.874434	171.8159
213	3.84984	155.5441
213.5	3.863745	140.5947
214	3.817665	125.5958
214.5	3.765891	112.0205
215	3.87512	99.22312
215.5	4.075675	83.05245
216	4.010707	67.04876
216.5	4.059682	51.75538
217	3.961748	36.44462
217.5	4.033587	23.01729
218	4.040593	7.197943
218.5	4.044112	-6.074995
219	4.237367	-22.03057
219.5	4.220689	-38.13339
220	4.286507	-53.43534
220.5	4.220334	-69.90232
221	4.150755	-84.16055
221.5	4.280483	-98.62153
222	4.337043	-115.13
222.5	4.24933	-130.5373
223	4.252435	-145.9121
223.5	4.191721	-160.5631
224	4.258607	-175.2318
224.5	4.222567	169.4621
225	4.230665	155.0124
225.5	4.293942	139.7412
226	4.270129	125.1917
226.5	4.379376	109.8023
227	4.370949	93.47815
227.5	4.351478	78.13638
228	4.312134	62.85104
228.5	4.281984	48.02787
229	4.27136	33.13244
229.5	4.322971	18.3529
230	4.385334	2.866214
230.5	4.365096	-13.51881
231	4.30523	-29.18859
231.5	4.246999	-44.59028
232	4.215519	-58.68009
232.5	4.259176	-73.1137
233	4.347675	-88.9863
233.5	4.326594	-104.8321
234	4.337962	-120.2559
234.5	4.307655	-136.1967
235	4.281352	-151.6199
235.5	4.242522	-167.2204
236	4.206444	178.0494
236.5	4.188592	162.8337
237	4.16955	147.9956
237.5	4.207184	132.4941
238	4.162987	116.6257
238.5	4.147344	101.8096
239	4.117937	85.86811
239.5	4.030192	70.50926
240	4.007111	55.94836
240.5	3.989853	40.96119
241	3.984854	25.79165
241.5	3.943564	10.17929
242	3.890717	-4.947416
242.5	3.882917	-20.1856
243	3.82509	-35.29325
243.5	3.806673	-50.02879
244	3.790875	-65.30899
244.5	3.774888	-80.90929
245	3.72514	-96.09325
245.5	3.630908	-111.592
246	3.557958	-125.5819
246.5	3.577772	-139.2296
247	3.619652	-154.1124
247.5	3.627721	-169.8336
248	3.566087	174.3924
248.5	3.531522	159.3827
249	3.457017	144.8535
249.5	3.420338	130.9955
250	3.425972	116.1515
250.5	3.428591	101.8235
251	3.398916	86.46275
251.5	3.364622	72.31032
252	3.354139	58.05976
252.5	3.445588	43.52692
253	3.428546	27.55667
253.5	3.40997	12.74768
254	3.399009	-3.264841
254.5	3.340377	-17.98653
255	3.369929	-32.73645
255.5	3.279944	-48.49085
256	3.243909	-63.01571
256.5	3.198489	-77.91418
257	3.151503	-91.21553
257.5	3.140228	-104.5537
258	3.243092	-117.8862
258.5	3.345656	-133.3245
259	3.432039	-150.2893
259.5	3.309753	-166.3732
260	3.280372	178.8951
260.5	3.222776	164.3011
261	3.241615	151.0438
261.5	3.316369	136.03
262	3.320641	119.6718
262.5	3.25837	104.2243
263	3.205638	90.18629
263.5	3.182406	76.7551
264	3.256164	62.83095
264.5	3.337129	46.36745
265	3.242083	31.22239
265.5	3.295771	17.30999
266	3.283947	1.856043
266.5	3.293152	-13.17698
267	3.307637	-27.32041
267.5	3.440229	-42.86591
268	3.425945	-59.7252
268.5	3.363287	-75.07024
269	3.323226	-90.01563
269.5	3.352224	-104.1233
270	3.395633	-119.2221
270.5	3.409485	-135.0558
271	3.397206	-150.6795
271.5	3.348748	-165.2635
272	3.462173	-179.9359
272.5	3.439825	162.9824
273	3.403482	147.8025
273.5	3.391792	132.6357
274	3.372566	116.8448
274.5	3.290857	102.1489
275	3.275015	87.7322
275.5	3.299945	73.67028
276	3.366899	58.45684
276.5	3.391169	42.40117
277	3.34212	25.57329
277.5	3.275255	10.56347
278	3.240717	-3.813973
278.5	3.295244	-18.75264
279	3.22666	-34.81762
279.5	3.263559	-49.05614
280	3.269525	-65.26339
280.5	3.193485	-81.15272
281	3.128963	-95.44379
281.5	3.132394	-109.5368
282	3.14892	-124.1701
282.5	3.178384	-139.0534
283	3.211989	-155.3673
283.5	3.139788	-171.4286
284	3.096527	174.7953
284.5	3.091222	160.3616
285	3.135014	145.6261
285.5	3.131871	130.3693
286	3.183219	115.8487
286.5	3.195138	99.58769
287	3.13651	83.88621
287.5	3.135671	69.14946
288	3.126164	53.93239
288.5	3.138131	39.16601
289	3.174242	23.26672
289.5	3.117592	7.106955
290	3.086615	-7.614137
290.5	3.094977	-22.49672
291	3.09479	-38.08142
291.5	3.092796	-53.97255
292	3.022696	-69.52581
292.5	2.98922	-83.69913
293	2.990449	-98.3774
293.5	2.973599	-113.6701
294	2.979276	-127.6564
294.5	3.044638	-142.2055
295	3.149916	-157.8136
295.5	3.169191	-175.8325
296	3.034199	168.4966
296.5	3.049318	153.7551
297	3.000293	138.5287
297.5	3.046791	123.9756
298	3.05899	107.013
298.5	2.994015	91.07642
299	2.972366	75.77661
299.5	2.870794	59.59864
300	2.790146	45.95922
300.5	2.845714	31.55222
301	2.81096	15.86133
301.5	2.811662	1.551038
302	2.811512	-14.55273
302.5	2.804374	-29.66251
303	2.786214	-45.67387
303.5	2.755494	-59.75582
304	2.808514	-76.19212
304.5	2.76438	-93.12457
305	2.665833	-108.8219
305.5	2.588806	-122.5917
306	2.566342	-136.6602
306.5	2.588896	-150.6903
307	2.657922	-165.9064
307.5	2.642404	178.0093
308	2.68393	161.6665
308.5	2.623044	144.0775
309	2.504498	129.4468
309.5	2.44705	114.8895
310	2.42125	100.3641
310.5	2.403942	85.10925
311	2.368299	71.19567
311.5	2.339901	56.19509
312	2.331199	41.87103
312.5	2.368163	26.12068
313	2.344261	9.564741
313.5	2.26983	-5.600128
314	2.224883	-20.1584
314.5	2.23117	-35.42475
315	2.167783	-49.99618
315.5	2.203311	-63.92772
316	2.201834	-81.09956
316.5	2.102707	-96.70354
317	2.069312	-110.0996
317.5	2.065733	-124.1546
318	2.050518	-140.0435
318.5	2.014473	-154.671
319	2.011383	-168.9167
319.5	2.001772	175.3598
320	1.922068	160.6241
320.5	1.88994	147.4677
321	1.919305	133.8198
321.5	1.921792	119.525
322	1.972789	104.827
322.5	1.94151	87.41033
323	1.880025	73.04199
323.5	1.859269	57.51191
324	1.805485	44.65935
324.5	1.822438	29.966
325	1.77552	16.4108
325.5	1.858512	3.208764
326	1.894291	-14.36337
326.5	1.841704	-29.54544
327	1.823911	-44.84673
327.5	1.787911	-58.9843
328	1.806422	-72.73311
328.5	1.818915	-87.93703
329	1.84033	-103.3351
329.5	1.838366	-119.5673
330	1.779683	-134.6073
330.5	1.780709	-148.9363
331	1.69005	-165.2918
331.5	1.663621	-174.2269
332	1.816876	172.3442
332.5	1.868767	154.4893
333	1.85285	137.9849
333.5	1.83625	121.5774
334	1.779462	106.3829
334.5	1.733413	92.48338
335	1.755282	77.94287
335.5	1.748741	62.10517
336	1.695179	48.38063
336.5	1.756563	34.70009
337	1.763366	16.56496
337.5	1.655587	1.650348
338	1.674158	-9.741783
338.5	1.716655	-24.31483
339	1.778437	-40.7327
339.5	1.767527	-57.94404
340	1.724839	-73.19672
340.5	1.707168	-87.62981
341	1.699348	-103.0489
341.5	1.712959	-118.5829
342	1.647939	-134.2658
342.5	1.641467	-145.9228
343	1.750538	-163.1034
343.5	1.634279	178.6385
344	1.573675	167.6597
344.5	1.614156	154.2266
345	1.657694	139.5409
345.5	1.691782	121.3505
346	1.597074	106.0824
346.5	1.59385	93.08778
347	1.598107	78.77615
347.5	1.630751	63.28389
348	1.632419	46.41134
348.5	1.583617	31.23528
349	1.603502	15.91993
349.5	1.550709	-1.67626
350	1.471392	-14.30699
