Source File Name:	7,1,3
Signal:	FFT - Ref1 Force - Mag. & Phase

Frequency	Magnitude	Phase
[ Hz ]	[ N ]	[ ° ]
20	9.80449e-5	140.3178
20.5	9.823762e-5	125.6998
21	9.791802e-5	111.2442
21.5	9.789878e-5	96.58928
22	9.792679e-5	81.94875
22.5	9.788815e-5	67.34943
23	9.77396e-5	52.78694
23.5	9.814955e-5	38.36658
24	9.777429e-5	23.82339
24.5	9.829435e-5	9.350842
25	9.853491e-5	-5.227114
25.5	9.845352e-5	-19.52445
26	9.872051e-5	-34.04817
26.5	9.853753e-5	-48.42365
27	9.887612e-5	-62.90467
27.5	9.86254e-5	-77.27572
28	9.885897e-5	-91.66192
28.5	9.831049e-5	-106.0413
29	9.853071e-5	-120.5303
29.5	9.837869e-5	-134.974
30	9.831283e-5	-149.5176
30.5	9.793099e-5	-163.7974
31	9.751632e-5	-178.3965
31.5	9.752835e-5	167.1289
32	9.728179e-5	152.6626
32.5	9.736983e-5	138.0521
33	9.706852e-5	123.6346
33.5	9.698638e-5	109.0341
34	9.69128e-5	94.55323
34.5	9.707527e-5	79.96298
35	9.663808e-5	65.38606
35.5	9.707749e-5	50.80326
36	9.673896e-5	36.40898
36.5	9.686527e-5	21.92686
37	9.681621e-5	7.358724
37.5	9.679615e-5	-7.140388
38	9.709926e-5	-21.61229
38.5	9.688146e-5	-35.97807
39	9.684565e-5	-50.38754
39.5	9.658618e-5	-64.9144
40	9.688061e-5	-79.27674
40.5	9.657292e-5	-93.7077
41	9.667057e-5	-108.1507
41.5	9.660205e-5	-122.5704
42	9.642469e-5	-137.0006
42.5	9.596594e-5	-151.5065
43	9.605954e-5	-166.0431
43.5	9.55849e-5	179.4917
44	9.569129e-5	165.0305
44.5	9.545961e-5	150.482
45	9.525845e-5	136.102
45.5	9.528172e-5	121.4605
46	9.493897e-5	106.8775
46.5	9.501656e-5	92.47909
47	9.463425e-5	77.80916
47.5	9.481667e-5	63.35455
48	9.481621e-5	48.7659
48.5	9.466411e-5	34.35962
49	9.456661e-5	19.87941
49.5	9.461194e-5	5.244449
50	9.461899e-5	-9.173234
50.5	9.45921e-5	-23.58318
51	9.428419e-5	-38.07129
51.5	9.437642e-5	-52.62967
52	9.417428e-5	-66.9548
52.5	9.413641e-5	-81.5044
53	9.393069e-5	-95.77537
53.5	9.387481e-5	-110.3121
54	9.362485e-5	-124.7401
54.5	9.342797e-5	-139.2288
55	9.332377e-5	-153.6765
55.5	9.300017e-5	-168.1173
56	9.2974e-5	177.3667
56.5	9.269334e-5	162.8299
57	9.25853e-5	148.3083
57.5	9.258618e-5	133.8975
58	9.217563e-5	119.3354
58.5	9.228235e-5	104.7365
59	9.189108e-5	90.25967
59.5	9.200894e-5	75.74398
60	9.164528e-5	61.27834
60.5	9.168046e-5	46.68877
61	9.173351e-5	32.15936
61.5	9.142815e-5	17.80873
62	9.1635e-5	3.333977
62.5	9.134194e-5	-11.14261
63	9.120539e-5	-25.59709
63.5	9.135091e-5	-40.16261
64	9.067992e-5	-54.39889
64.5	9.147825e-5	-69.04259
65	9.084114e-5	-83.35916
65.5	9.060896e-5	-97.81552
66	9.057945e-5	-112.4904
66.5	9.020194e-5	-126.6477
67	9.021146e-5	-141.221
67.5	8.976927e-5	-155.7399
68	8.97229e-5	-170.2232
68.5	8.95031e-5	175.3457
69	8.911014e-5	160.8112
69.5	8.912334e-5	146.2806
70	8.882809e-5	131.8552
70.5	8.872405e-5	117.3362
71	8.853574e-5	102.8142
71.5	8.838048e-5	88.23018
72	8.836098e-5	73.66833
72.5	8.818999e-5	59.26439
73	8.813451e-5	44.66092
73.5	8.784812e-5	30.23046
74	8.793365e-5	15.69098
74.5	8.775056e-5	1.203872
75	8.752839e-5	-13.21962
75.5	8.75632e-5	-27.65219
76	8.728855e-5	-42.15038
76.5	8.732347e-5	-56.65257
77	8.707779e-5	-71.01675
77.5	8.683143e-5	-85.44859
78	8.676111e-5	-100.0547
78.5	8.660681e-5	-114.2978
79	8.642167e-5	-128.7823
79.5	8.597586e-5	-143.2556
80	8.601705e-5	-157.7436
80.5	8.570389e-5	-172.2547
81	8.572482e-5	173.3189
81.5	8.526509e-5	158.7642
82	8.513156e-5	144.2797
82.5	8.484743e-5	129.8218
83	8.464736e-5	115.3766
83.5	8.445924e-5	100.6981
84	8.446602e-5	86.28954
84.5	8.422042e-5	71.8494
85	8.398297e-5	57.40359
85.5	8.393297e-5	42.81934
86	8.366371e-5	28.33521
86.5	8.370072e-5	13.79826
87	8.337052e-5	-0.5418539
87.5	8.348009e-5	-15.08424
88	8.307895e-5	-29.38638
88.5	8.315705e-5	-43.99169
89	8.276079e-5	-58.48055
89.5	8.275388e-5	-72.83437
90	8.251022e-5	-87.34237
90.5	8.214249e-5	-101.7165
91	8.220081e-5	-116.2091
91.5	8.182418e-5	-130.694
92	8.163557e-5	-145.0816
92.5	8.136754e-5	-159.6413
93	8.123101e-5	-173.9961
93.5	8.09788e-5	171.5018
94	8.067027e-5	156.9108
94.5	8.060044e-5	142.5032
95	8.025426e-5	127.9073
95.5	8.019102e-5	113.6084
96	7.984464e-5	98.96599
96.5	7.969174e-5	84.40952
97	7.963034e-5	70.00249
97.5	7.924916e-5	55.45031
98	7.926434e-5	40.9711
98.5	7.898422e-5	26.54653
99	7.895417e-5	12.08829
99.5	7.869542e-5	-2.3943
100	7.86161e-5	-16.82077
100.5	7.833247e-5	-31.36024
101	7.823928e-5	-45.79768
101.5	7.804344e-5	-60.1552
102	7.785147e-5	-74.63518
102.5	7.767191e-5	-89.05973
103	7.744207e-5	-103.6317
103.5	7.725323e-5	-117.9301
104	7.710369e-5	-132.4904
104.5	7.677262e-5	-146.8218
105	7.664875e-5	-161.4004
105.5	7.636614e-5	-175.7906
106	7.601469e-5	169.6118
106.5	7.59704e-5	155.1832
107	7.569783e-5	140.8296
107.5	7.548042e-5	126.2392
108	7.514036e-5	111.7615
108.5	7.517082e-5	97.24635
109	7.487513e-5	82.89502
109.5	7.459151e-5	68.18216
110	7.481327e-5	53.89
110.5	7.427153e-5	39.3227
111	7.416187e-5	24.92772
111.5	7.410307e-5	10.35433
112	7.38934e-5	-3.959838
112.5	7.378362e-5	-18.54357
113	7.355812e-5	-33.05582
113.5	7.342389e-5	-47.32246
114	7.305451e-5	-61.91883
114.5	7.287101e-5	-76.28628
115	7.283415e-5	-90.69749
115.5	7.242203e-5	-105.0734
116	7.227801e-5	-119.6362
116.5	7.197769e-5	-134.0091
117	7.178245e-5	-148.5074
117.5	7.157015e-5	-162.912
118	7.142385e-5	-177.4529
118.5	7.100379e-5	168.0671
119	7.088107e-5	153.5741
119.5	7.065241e-5	139.1148
120	7.040488e-5	124.6215
120.5	7.02628e-5	110.179
121	7.004246e-5	95.60801
121.5	6.990783e-5	81.18571
122	6.96881e-5	66.63223
122.5	6.948105e-5	52.18206
123	6.917591e-5	37.69047
123.5	6.908433e-5	23.20704
124	6.893047e-5	8.888331
124.5	6.875338e-5	-5.662767
125	6.85022e-5	-20.10522
125.5	6.840882e-5	-34.51857
126	6.811384e-5	-48.91485
126.5	6.802801e-5	-63.32676
127	6.770068e-5	-77.75625
127.5	6.748953e-5	-92.2495
128	6.725841e-5	-106.5996
128.5	6.723537e-5	-121.1813
129	6.67325e-5	-135.4225
129.5	6.65462e-5	-149.9865
130	6.621152e-5	-164.4724
130.5	6.604672e-5	-178.735
131	6.578262e-5	166.6142
131.5	6.554235e-5	152.1779
132	6.537606e-5	137.5885
132.5	6.518968e-5	123.27
133	6.487026e-5	108.8982
133.5	6.461229e-5	94.20866
134	6.451038e-5	79.84687
134.5	6.436238e-5	65.31963
135	6.413952e-5	50.94746
135.5	6.390587e-5	36.38768
136	6.377813e-5	21.97648
136.5	6.362258e-5	7.530784
137	6.3356e-5	-6.896221
137.5	6.315392e-5	-21.30244
138	6.299847e-5	-35.82108
138.5	6.271721e-5	-50.11793
139	6.255788e-5	-64.61279
139.5	6.225258e-5	-79.00738
140	6.20217e-5	-93.47857
140.5	6.184725e-5	-107.865
141	6.15466e-5	-122.2792
141.5	6.141741e-5	-136.806
142	6.107578e-5	-151.0564
142.5	6.084199e-5	-165.7469
143	6.067341e-5	179.8923
143.5	6.043531e-5	165.4506
144	6.024572e-5	151.0024
144.5	5.985096e-5	136.5713
145	5.976121e-5	121.9487
145.5	5.949629e-5	107.4917
146	5.936976e-5	93.13173
146.5	5.902414e-5	78.68251
147	5.891196e-5	64.23302
147.5	5.859902e-5	49.67725
148	5.855801e-5	35.37825
148.5	5.830506e-5	20.85642
149	5.811095e-5	6.306244
149.5	5.794491e-5	-7.938895
150	5.772669e-5	-22.59974
150.5	5.749777e-5	-36.70351
151	5.719893e-5	-51.32912
151.5	5.70894e-5	-65.6398
152	5.694318e-5	-80.14095
152.5	5.65709e-5	-94.48663
153	5.641486e-5	-108.9552
153.5	5.615982e-5	-123.3867
154	5.595528e-5	-137.8681
154.5	5.56756e-5	-152.202
155	5.541394e-5	-166.6847
155.5	5.521277e-5	178.8488
156	5.499498e-5	164.5662
156.5	5.472103e-5	149.804
157	5.465536e-5	135.5287
157.5	5.438117e-5	120.8791
158	5.409467e-5	106.5269
158.5	5.397753e-5	92.01791
159	5.362909e-5	77.65031
159.5	5.356938e-5	63.10104
160	5.334154e-5	48.71615
160.5	5.318362e-5	34.29069
161	5.304549e-5	19.9066
161.5	5.276772e-5	5.375185
162	5.257278e-5	-8.995246
162.5	5.228849e-5	-23.32028
163	5.217049e-5	-37.82434
163.5	5.196923e-5	-52.14998
164	5.182034e-5	-66.54534
164.5	5.148655e-5	-80.96231
165	5.134522e-5	-95.27151
165.5	5.104401e-5	-109.8167
166	5.091291e-5	-124.2324
166.5	5.068721e-5	-138.5878
167	5.026396e-5	-152.9962
167.5	5.010136e-5	-167.4868
168	5.000364e-5	178.219
168.5	4.968671e-5	163.7516
169	4.942284e-5	149.2741
169.5	4.929238e-5	134.7232
170	4.903415e-5	120.4451
170.5	4.885426e-5	105.8279
171	4.871727e-5	91.57616
171.5	4.840637e-5	77.12235
172	4.827392e-5	62.46459
172.5	4.816607e-5	48.20117
173	4.797006e-5	33.66599
173.5	4.779534e-5	19.44932
174	4.762439e-5	4.982929
174.5	4.732659e-5	-9.492894
175	4.725542e-5	-24.00605
175.5	4.703188e-5	-38.23037
176	4.691868e-5	-52.59354
176.5	4.662857e-5	-67.08315
177	4.637664e-5	-81.51779
177.5	4.629339e-5	-96.01662
178	4.597782e-5	-110.1667
178.5	4.580901e-5	-124.5984
179	4.53935e-5	-138.9807
179.5	4.536504e-5	-153.5692
180	4.516284e-5	-167.863
180.5	4.478837e-5	177.8305
181	4.462458e-5	163.1228
181.5	4.442814e-5	148.8371
182	4.436637e-5	134.3802
182.5	4.395792e-5	120.0256
183	4.379644e-5	105.4551
183.5	4.361188e-5	91.08117
184	4.349411e-5	76.65214
184.5	4.322406e-5	62.12963
185	4.321871e-5	47.71894
185.5	4.286009e-5	33.61239
186	4.268952e-5	19.02829
186.5	4.242351e-5	4.536821
187	4.249293e-5	-9.748256
187.5	4.223045e-5	-24.127
188	4.206281e-5	-38.4872
188.5	4.177774e-5	-52.86125
189	4.157755e-5	-67.36936
189.5	4.157537e-5	-81.81271
190	4.121017e-5	-95.91707
190.5	4.111575e-5	-110.6311
191	4.083554e-5	-124.8489
191.5	4.064714e-5	-139.1111
192	4.040061e-5	-153.6892
192.5	4.022505e-5	-168.0197
193	3.993581e-5	177.5009
193.5	3.98479e-5	163.0452
194	3.955143e-5	148.8194
194.5	3.941761e-5	134.3354
195	3.924294e-5	119.8569
195.5	3.911694e-5	105.3647
196	3.886699e-5	90.88787
196.5	3.875671e-5	76.53468
197	3.856541e-5	62.18968
197.5	3.845461e-5	47.89317
198	3.817907e-5	33.22042
198.5	3.809748e-5	18.93489
199	3.788409e-5	4.526589
199.5	3.781755e-5	-9.505375
200	3.750298e-5	-24.05564
200.5	3.744722e-5	-38.45611
201	3.716888e-5	-52.97274
201.5	3.693469e-5	-67.23441
202	3.687549e-5	-81.57561
202.5	3.664217e-5	-95.85046
203	3.651085e-5	-110.0855
203.5	3.620644e-5	-124.6774
204	3.605496e-5	-139.0513
204.5	3.589405e-5	-153.4058
205	3.573123e-5	-167.9164
205.5	3.544253e-5	177.8832
206	3.534869e-5	163.366
206.5	3.501381e-5	148.9927
207	3.493399e-5	134.4908
207.5	3.477663e-5	120.2262
208	3.442228e-5	105.7327
208.5	3.441246e-5	91.23311
209	3.42587e-5	76.80853
209.5	3.398455e-5	62.56446
210	3.405412e-5	47.91861
210.5	3.370801e-5	34.0195
211	3.365342e-5	19.65819
211.5	3.347676e-5	5.22088
212	3.329644e-5	-9.065355
212.5	3.322403e-5	-23.54831
213	3.289248e-5	-37.85465
213.5	3.294205e-5	-52.4055
214	3.267034e-5	-66.57913
214.5	3.230541e-5	-80.72827
215	3.238536e-5	-95.40841
215.5	3.208545e-5	-109.4704
216	3.186425e-5	-123.9725
216.5	3.174985e-5	-138.498
217	3.149571e-5	-152.6637
217.5	3.138939e-5	-167.0442
218	3.114073e-5	178.4586
218.5	3.111583e-5	164.1091
219	3.088284e-5	149.7135
219.5	3.070273e-5	135.3527
220	3.053834e-5	121.0455
220.5	3.048553e-5	106.4492
221	3.028048e-5	91.92568
221.5	3.012079e-5	77.78056
222	2.980793e-5	63.24283
222.5	2.98618e-5	48.96129
223	2.968769e-5	34.80494
223.5	2.962608e-5	20.35909
224	2.9329e-5	5.935047
224.5	2.931784e-5	-8.560428
225	2.907542e-5	-22.54276
225.5	2.891699e-5	-37.00825
226	2.893982e-5	-51.07219
226.5	2.856609e-5	-65.52983
227	2.858136e-5	-79.98209
227.5	2.845925e-5	-94.18816
228	2.809658e-5	-108.4194
228.5	2.800961e-5	-123.016
229	2.79434e-5	-137.2353
229.5	2.759161e-5	-151.5975
230	2.760287e-5	-166.1202
230.5	2.732135e-5	179.7849
231	2.72797e-5	165.3129
231.5	2.700952e-5	150.9267
232	2.706215e-5	136.3959
232.5	2.663011e-5	122.1991
233	2.660554e-5	107.7722
233.5	2.649608e-5	93.09737
234	2.636709e-5	79.37529
234.5	2.617538e-5	64.60394
235	2.608364e-5	50.05189
235.5	2.613695e-5	35.96754
236	2.574752e-5	21.80518
236.5	2.575346e-5	7.349547
237	2.560528e-5	-6.989961
237.5	2.550139e-5	-21.27843
238	2.533454e-5	-35.57753
238.5	2.513791e-5	-49.80925
239	2.504217e-5	-64.24759
239.5	2.48883e-5	-78.48523
240	2.470264e-5	-92.90765
240.5	2.461745e-5	-107.0663
241	2.436863e-5	-121.4313
241.5	2.43479e-5	-135.632
242	2.405268e-5	-149.8187
242.5	2.402108e-5	-164.812
243	2.390807e-5	-178.6773
243.5	2.37179e-5	166.7657
244	2.351491e-5	152.6276
244.5	2.348635e-5	138.0273
245	2.334793e-5	123.6612
245.5	2.329005e-5	109.2395
246	2.310244e-5	95.29021
246.5	2.296022e-5	80.42925
247	2.28213e-5	66.11802
247.5	2.283184e-5	51.77332
248	2.259226e-5	37.6118
248.5	2.243279e-5	23.32085
249	2.242707e-5	9.187121
249.5	2.21919e-5	-5.359892
250	2.236799e-5	-19.70358
250.5	2.20484e-5	-33.78004
251	2.192229e-5	-48.38796
251.5	2.187281e-5	-62.51636
252	2.178896e-5	-76.64496
252.5	2.150215e-5	-90.93137
253	2.140877e-5	-105.5958
253.5	2.119821e-5	-119.4713
254	2.118093e-5	-134.0541
254.5	2.103182e-5	-148.052
255	2.091343e-5	-162.5824
255.5	2.063542e-5	-177.2862
256	2.060536e-5	168.6928
256.5	2.043057e-5	153.9059
257	2.040486e-5	139.7031
257.5	2.030897e-5	126.1634
258	2.01259e-5	111.2174
258.5	2.012616e-5	97.09035
259	1.994772e-5	82.38517
259.5	1.99247e-5	68.09683
260	1.982457e-5	54.07284
260.5	1.972875e-5	39.73081
261	1.959844e-5	25.2363
261.5	1.954782e-5	11.21215
262	1.936994e-5	-3.421956
262.5	1.931756e-5	-17.41185
263	1.915245e-5	-31.7621
263.5	1.914244e-5	-46.26208
264	1.888831e-5	-60.23291
264.5	1.893658e-5	-74.52818
265	1.884466e-5	-88.67892
265.5	1.86017e-5	-102.8926
266	1.859743e-5	-117.6155
266.5	1.842876e-5	-131.5544
267	1.833642e-5	-145.8811
267.5	1.827661e-5	-160.2634
268	1.810503e-5	-174.8778
268.5	1.797965e-5	170.7128
269	1.790857e-5	156.8205
269.5	1.772761e-5	142.1246
270	1.773274e-5	128.0061
270.5	1.752636e-5	113.5576
271	1.744039e-5	99.28131
271.5	1.729192e-5	84.90508
272	1.736488e-5	70.37939
272.5	1.722622e-5	56.65507
273	1.720168e-5	42.09545
273.5	1.701321e-5	27.84235
274	1.697801e-5	13.35744
274.5	1.698765e-5	-0.8043801
275	1.683421e-5	-14.60264
275.5	1.662103e-5	-29.5056
276	1.666491e-5	-43.35286
276.5	1.651131e-5	-57.73241
277	1.641088e-5	-72.07888
277.5	1.622061e-5	-86.17795
278	1.617365e-5	-100.4997
278.5	1.604359e-5	-114.7426
279	1.593611e-5	-128.7952
279.5	1.59044e-5	-143.4158
280	1.573238e-5	-157.4164
280.5	1.568176e-5	-171.8411
281	1.548811e-5	173.8255
281.5	1.542874e-5	159.6685
282	1.539003e-5	144.9571
282.5	1.521918e-5	130.9973
283	1.513795e-5	116.7157
283.5	1.504867e-5	102.1733
284	1.500956e-5	87.61808
284.5	1.502923e-5	73.41859
285	1.493641e-5	59.26874
285.5	1.467262e-5	44.70256
286	1.476379e-5	30.49246
286.5	1.467919e-5	16.57602
287	1.450938e-5	2.078674
287.5	1.446199e-5	-12.25211
288	1.447524e-5	-26.73572
288.5	1.441855e-5	-40.20878
289	1.418007e-5	-54.75064
289.5	1.415448e-5	-69.26676
290	1.41121e-5	-83.13402
290.5	1.399663e-5	-97.37234
291	1.391542e-5	-111.6725
291.5	1.379708e-5	-126.0075
292	1.368909e-5	-140.3529
292.5	1.376735e-5	-154.4065
293	1.34016e-5	-169.1658
293.5	1.360476e-5	176.6157
294	1.337237e-5	162.6643
294.5	1.330002e-5	147.9035
295	1.32453e-5	133.6599
295.5	1.309732e-5	119.5984
296	1.324672e-5	105.0839
296.5	1.303589e-5	90.55253
297	1.292249e-5	76.27873
297.5	1.28079e-5	61.54003
298	1.291532e-5	47.30007
298.5	1.291659e-5	33.86276
299	1.265082e-5	19.83221
299.5	1.270653e-5	4.841377
300	1.26457e-5	-8.849549
300.5	1.249787e-5	-23.27708
301	1.240303e-5	-38.08458
301.5	1.246475e-5	-51.71635
302	1.236338e-5	-65.86382
302.5	1.214321e-5	-79.67262
303	1.213379e-5	-94.63625
303.5	1.20229e-5	-108.2571
304	1.1981e-5	-122.8729
304.5	1.186863e-5	-137.1768
305	1.178492e-5	-151.5913
305.5	1.161856e-5	-165.2827
306	1.166672e-5	179.5215
306.5	1.16014e-5	166.0602
307	1.14721e-5	151.8042
307.5	1.146285e-5	136.9515
308	1.135432e-5	122.6553
308.5	1.128067e-5	107.9872
309	1.130925e-5	94.07498
309.5	1.115308e-5	79.61543
310	1.116276e-5	65.28706
310.5	1.115762e-5	51.20832
311	1.103935e-5	37.005
311.5	1.093485e-5	22.89265
312	1.092827e-5	7.817989
312.5	1.08827e-5	-6.289757
313	1.089493e-5	-20.01561
313.5	1.065465e-5	-34.73288
314	1.073179e-5	-48.15398
314.5	1.054311e-5	-63.41054
315	1.061295e-5	-76.93446
315.5	1.051232e-5	-90.93031
316	1.039324e-5	-105.2436
316.5	1.042112e-5	-119.7051
317	1.020576e-5	-133.9887
317.5	1.01796e-5	-148.1549
318	1.008538e-5	-162.7273
318.5	1.002975e-5	-177.1758
319	9.967988e-6	169.3809
319.5	9.853266e-6	154.3041
320	9.841569e-6	140.4543
320.5	9.892226e-6	125.2826
321	9.799928e-6	111.7982
321.5	9.744593e-6	97.40714
322	9.391492e-6	82.22093
322.5	9.680621e-6	68.70853
323	9.668373e-6	53.73987
323.5	9.504495e-6	40.4179
324	9.501407e-6	25.74424
324.5	9.400919e-6	11.34627
325	9.356711e-6	-2.840151
325.5	9.325748e-6	-16.64634
326	9.187851e-6	-30.91815
326.5	9.226668e-6	-45.32913
327	9.086903e-6	-58.53358
327.5	9.066848e-6	-74.11558
328	9.092495e-6	-88.64656
328.5	9.039919e-6	-101.5556
329	8.765842e-6	-116.0476
329.5	8.833252e-6	-131.3426
330	8.747455e-6	-145.3427
330.5	8.665541e-6	-158.4639
331	8.5433e-6	-174.2569
331.5	8.624419e-6	172.7009
332	8.637182e-6	158.0919
332.5	8.292224e-6	143.5692
333	8.451102e-6	129.0368
333.5	8.308471e-6	114.8952
334	8.325575e-6	100.4502
334.5	8.360174e-6	85.59617
335	8.200142e-6	71.82417
335.5	8.25604e-6	57.96313
336	8.162626e-6	43.22396
336.5	8.159339e-6	29.52024
337	8.090267e-6	14.88047
337.5	8.067047e-6	0.2976753
338	8.038339e-6	-13.31008
338.5	7.982508e-6	-27.38925
339	7.853412e-6	-40.95449
339.5	7.817252e-6	-56.493
340	7.857703e-6	-69.46407
340.5	7.757621e-6	-84.80865
341	7.73049e-6	-97.95757
341.5	7.563833e-6	-113.0621
342	7.556285e-6	-126.9327
342.5	7.432574e-6	-141.4776
343	7.469605e-6	-155.2515
343.5	7.363399e-6	-169.738
344	7.263614e-6	175.4065
344.5	7.34806e-6	161.2222
345	7.248973e-6	147.9715
345.5	7.091926e-6	132.4604
346	7.166135e-6	117.8814
346.5	7.170645e-6	104.1673
347	7.07864e-6	89.33354
347.5	6.977901e-6	76.03545
348	6.931662e-6	59.35312
348.5	6.909106e-6	47.73485
349	6.924186e-6	32.11541
349.5	6.900118e-6	17.97379
350	6.904471e-6	4.302509
